# E (eV)   ldos(E)   pdos(E)_1   pdos(E)_2   
   7.605  0.205E-05  0.103E-05  0.103E-05
   7.607  0.128E-03  0.638E-04  0.638E-04
   7.609  0.109E-02  0.543E-03  0.543E-03
   7.611  0.136E-02  0.679E-03  0.679E-03
   7.613  0.472E-03  0.236E-03  0.236E-03
   7.615  0.146E-03  0.729E-04  0.729E-04
   7.617  0.149E-04  0.747E-05  0.747E-05
   7.619  0.472E-04  0.236E-04  0.236E-04
   7.621  0.163E-03  0.815E-04  0.815E-04
   7.623  0.765E-04  0.383E-04  0.383E-04
   7.625  0.486E-05  0.243E-05  0.243E-05
   7.627  0.418E-07  0.209E-07  0.209E-07
   7.629  0.487E-10  0.244E-10  0.244E-10
   7.631  0.767E-14  0.384E-14  0.384E-14
   7.633  0.165E-18  0.823E-19  0.823E-19
   7.635  0.100E-15  0.502E-16  0.502E-16
   7.637  0.144E-11  0.720E-12  0.720E-12
   7.639  0.283E-08  0.141E-08  0.141E-08
   7.641  0.776E-06  0.388E-06  0.388E-06
   7.643  0.311E-04  0.155E-04  0.155E-04
   7.645  0.197E-03  0.985E-04  0.985E-04
   7.647  0.214E-03  0.107E-03  0.107E-03
   7.649  0.418E-04  0.209E-04  0.209E-04
   7.651  0.484E-04  0.242E-04  0.242E-04
   7.653  0.143E-03  0.717E-04  0.717E-04
   7.655  0.636E-04  0.318E-04  0.318E-04
   7.657  0.243E-03  0.122E-03  0.122E-03
   7.659  0.162E-02  0.811E-03  0.811E-03
   7.661  0.148E-02  0.741E-03  0.741E-03
   7.663  0.190E-03  0.950E-04  0.950E-04
   7.665  0.271E-03  0.136E-03  0.136E-03
   7.667  0.146E-02  0.731E-03  0.731E-03
   7.669  0.108E-02  0.540E-03  0.540E-03
   7.671  0.108E-03  0.539E-04  0.539E-04
   7.673  0.189E-05  0.947E-06  0.947E-06
   7.675  0.228E-04  0.114E-04  0.114E-04
   7.677  0.166E-03  0.831E-04  0.831E-04
   7.679  0.170E-03  0.852E-04  0.852E-04
   7.681  0.394E-04  0.197E-04  0.197E-04
   7.683  0.105E-03  0.526E-04  0.526E-04
   7.685  0.369E-03  0.184E-03  0.184E-03
   7.687  0.163E-02  0.816E-03  0.816E-03
   7.689  0.126E-02  0.632E-03  0.632E-03
   7.691  0.133E-03  0.667E-04  0.667E-04
   7.693  0.190E-05  0.952E-06  0.952E-06
   7.695  0.368E-08  0.184E-08  0.184E-08
   7.697  0.962E-12  0.481E-12  0.481E-12
   7.699  0.500E-13  0.250E-13  0.250E-13
   7.701  0.212E-09  0.106E-09  0.106E-09
   7.703  0.122E-06  0.612E-07  0.612E-07
   7.705  0.961E-05  0.480E-05  0.480E-05
   7.707  0.103E-03  0.513E-04  0.513E-04
   7.709  0.150E-03  0.751E-04  0.751E-04
   7.711  0.590E-04  0.295E-04  0.295E-04
   7.713  0.937E-04  0.469E-04  0.469E-04
   7.715  0.396E-04  0.198E-04  0.198E-04
   7.717  0.228E-05  0.114E-05  0.114E-05
   7.719  0.178E-07  0.888E-08  0.888E-08
   7.721  0.282E-10  0.141E-10  0.141E-10
   7.723  0.243E-07  0.122E-07  0.122E-07
   7.725  0.868E-05  0.434E-05  0.434E-05
   7.727  0.434E-03  0.217E-03  0.217E-03
   7.729  0.305E-02  0.152E-02  0.152E-02
   7.731  0.301E-02  0.151E-02  0.151E-02
   7.733  0.434E-03  0.217E-03  0.217E-03
   7.735  0.103E-02  0.517E-03  0.517E-03
   7.737  0.148E-01  0.738E-02  0.738E-02
   7.739  0.446E-01  0.223E-01  0.223E-01
   7.741  0.683E-01  0.341E-01  0.341E-01
   7.743  0.922E-01  0.461E-01  0.461E-01
   7.745  0.795E-01  0.398E-01  0.398E-01
   7.747  0.356E-01  0.178E-01  0.178E-01
   7.749  0.190E-01  0.949E-02  0.949E-02
   7.751  0.196E-01  0.979E-02  0.979E-02
   7.753  0.993E-02  0.496E-02  0.496E-02
   7.755  0.807E-02  0.403E-02  0.403E-02
   7.757  0.942E-02  0.471E-02  0.471E-02
   7.759  0.173E-01  0.864E-02  0.864E-02
   7.761  0.165E-01  0.823E-02  0.823E-02
   7.763  0.252E-02  0.126E-02  0.126E-02
   7.765  0.307E-02  0.154E-02  0.154E-02
   7.767  0.890E-02  0.445E-02  0.445E-02
   7.769  0.481E-02  0.241E-02  0.241E-02
   7.771  0.104E-01  0.519E-02  0.519E-02
   7.773  0.168E-01  0.839E-02  0.839E-02
   7.775  0.780E-02  0.390E-02  0.390E-02
   7.777  0.852E-03  0.426E-03  0.426E-03
   7.779  0.220E-02  0.110E-02  0.110E-02
   7.781  0.829E-02  0.415E-02  0.415E-02
   7.783  0.440E-02  0.220E-02  0.220E-02
   7.785  0.398E-02  0.199E-02  0.199E-02
   7.787  0.116E-01  0.579E-02  0.579E-02
   7.789  0.532E-02  0.266E-02  0.266E-02
   7.791  0.510E-02  0.255E-02  0.255E-02
   7.793  0.878E-02  0.439E-02  0.439E-02
   7.795  0.501E-02  0.250E-02  0.250E-02
   7.797  0.717E-02  0.358E-02  0.358E-02
   7.799  0.864E-02  0.432E-02  0.432E-02
   7.801  0.251E-02  0.126E-02  0.126E-02
   7.803  0.348E-02  0.174E-02  0.174E-02
   7.805  0.129E-01  0.644E-02  0.644E-02
   7.807  0.759E-02  0.380E-02  0.380E-02
   7.809  0.652E-03  0.326E-03  0.326E-03
   7.811  0.250E-04  0.125E-04  0.125E-04
   7.813  0.904E-03  0.452E-03  0.452E-03
   7.815  0.668E-02  0.334E-02  0.334E-02
   7.817  0.837E-02  0.419E-02  0.419E-02
   7.819  0.837E-02  0.419E-02  0.419E-02
   7.821  0.423E-02  0.212E-02  0.212E-02
   7.823  0.473E-03  0.237E-03  0.237E-03
   7.825  0.344E-02  0.172E-02  0.172E-02
   7.827  0.117E-01  0.584E-02  0.584E-02
   7.829  0.538E-02  0.269E-02  0.269E-02
   7.831  0.335E-03  0.168E-03  0.168E-03
   7.833  0.327E-05  0.163E-05  0.163E-05
   7.835  0.397E-05  0.198E-05  0.198E-05
   7.837  0.567E-05  0.284E-05  0.284E-05
   7.839  0.996E-04  0.498E-04  0.498E-04
   7.841  0.309E-02  0.154E-02  0.154E-02
   7.843  0.141E-01  0.704E-02  0.704E-02
   7.845  0.946E-02  0.473E-02  0.473E-02
   7.847  0.952E-03  0.476E-03  0.476E-03
   7.849  0.123E-02  0.614E-03  0.614E-03
   7.851  0.921E-02  0.460E-02  0.460E-02
   7.853  0.945E-02  0.473E-02  0.473E-02
   7.855  0.131E-02  0.657E-03  0.657E-03
   7.857  0.247E-04  0.123E-04  0.123E-04
   7.859  0.790E-07  0.395E-07  0.395E-07
   7.861  0.573E-05  0.286E-05  0.286E-05
   7.863  0.274E-03  0.137E-03  0.137E-03
   7.865  0.178E-02  0.892E-03  0.892E-03
   7.867  0.203E-02  0.101E-02  0.101E-02
   7.869  0.489E-02  0.245E-02  0.245E-02
   7.871  0.640E-02  0.320E-02  0.320E-02
   7.873  0.232E-02  0.116E-02  0.116E-02
   7.875  0.679E-02  0.339E-02  0.339E-02
   7.877  0.680E-02  0.340E-02  0.340E-02
   7.879  0.106E-01  0.529E-02  0.529E-02
   7.881  0.101E-01  0.507E-02  0.507E-02
   7.883  0.331E-02  0.165E-02  0.165E-02
   7.885  0.593E-03  0.296E-03  0.296E-03
   7.887  0.202E-04  0.101E-04  0.101E-04
   7.889  0.961E-07  0.480E-07  0.480E-07
   7.891  0.633E-10  0.317E-10  0.317E-10
   7.893  0.677E-08  0.338E-08  0.338E-08
   7.895  0.423E-05  0.212E-05  0.212E-05
   7.897  0.358E-03  0.179E-03  0.179E-03
   7.899  0.411E-02  0.205E-02  0.205E-02
   7.901  0.637E-02  0.318E-02  0.318E-02
   7.903  0.142E-02  0.709E-03  0.709E-03
   7.905  0.114E-02  0.572E-03  0.572E-03
   7.907  0.248E-02  0.124E-02  0.124E-02
   7.909  0.856E-02  0.428E-02  0.428E-02
   7.911  0.196E-01  0.981E-02  0.981E-02
   7.913  0.673E-02  0.336E-02  0.336E-02
   7.915  0.327E-03  0.163E-03  0.163E-03
   7.917  0.225E-05  0.112E-05  0.112E-05
   7.919  0.217E-08  0.109E-08  0.109E-08
   7.921  0.293E-12  0.147E-12  0.147E-12
   7.923  0.341E-14  0.170E-14  0.170E-14
   7.925  0.522E-10  0.261E-10  0.261E-10
   7.927  0.108E-06  0.542E-07  0.542E-07
   7.929  0.304E-04  0.152E-04  0.152E-04
   7.931  0.116E-02  0.579E-03  0.579E-03
   7.933  0.596E-02  0.298E-02  0.298E-02
   7.935  0.420E-02  0.210E-02  0.210E-02
   7.937  0.130E-02  0.652E-03  0.652E-03
   7.939  0.230E-02  0.115E-02  0.115E-02
   7.941  0.141E-02  0.706E-03  0.706E-03
   7.943  0.743E-02  0.372E-02  0.372E-02
   7.945  0.117E-01  0.585E-02  0.585E-02
   7.947  0.401E-02  0.200E-02  0.200E-02
   7.949  0.691E-02  0.345E-02  0.345E-02
   7.951  0.414E-02  0.207E-02  0.207E-02
   7.953  0.339E-03  0.169E-03  0.169E-03
   7.955  0.376E-05  0.188E-05  0.188E-05
   7.957  0.312E-07  0.156E-07  0.156E-07
   7.959  0.848E-05  0.424E-05  0.424E-05
   7.961  0.421E-03  0.211E-03  0.211E-03
   7.963  0.387E-02  0.193E-02  0.193E-02
   7.965  0.944E-02  0.472E-02  0.472E-02
   7.967  0.103E-01  0.517E-02  0.517E-02
   7.969  0.123E-01  0.617E-02  0.617E-02
   7.971  0.790E-02  0.395E-02  0.395E-02
   7.973  0.306E-02  0.153E-02  0.153E-02
   7.975  0.638E-02  0.319E-02  0.319E-02
   7.977  0.342E-02  0.171E-02  0.171E-02
   7.979  0.964E-02  0.482E-02  0.482E-02
   7.981  0.163E-01  0.814E-02  0.814E-02
   7.983  0.459E-02  0.230E-02  0.230E-02
   7.985  0.255E-03  0.128E-03  0.128E-03
   7.987  0.223E-02  0.111E-02  0.111E-02
   7.989  0.118E-01  0.591E-02  0.591E-02
   7.991  0.949E-02  0.475E-02  0.475E-02
   7.993  0.208E-02  0.104E-02  0.104E-02
   7.995  0.455E-02  0.227E-02  0.227E-02
   7.997  0.296E-02  0.148E-02  0.148E-02
   7.999  0.262E-03  0.131E-03  0.131E-03
   8.001  0.314E-05  0.157E-05  0.157E-05
   8.003  0.621E-06  0.311E-06  0.311E-06
   8.005  0.109E-03  0.546E-04  0.546E-04
   8.007  0.288E-02  0.144E-02  0.144E-02
   8.009  0.120E-01  0.599E-02  0.599E-02
   8.011  0.815E-02  0.408E-02  0.408E-02
   8.013  0.249E-02  0.125E-02  0.125E-02
   8.015  0.600E-02  0.300E-02  0.300E-02
   8.017  0.867E-02  0.434E-02  0.434E-02
   8.019  0.126E-01  0.631E-02  0.631E-02
   8.021  0.970E-02  0.485E-02  0.485E-02
   8.023  0.117E-02  0.587E-03  0.587E-03
   8.025  0.194E-04  0.969E-05  0.969E-05
   8.027  0.645E-05  0.323E-05  0.323E-05
   8.029  0.466E-03  0.233E-03  0.233E-03
   8.031  0.460E-02  0.230E-02  0.230E-02
   8.033  0.666E-02  0.333E-02  0.333E-02
   8.035  0.642E-02  0.321E-02  0.321E-02
   8.037  0.712E-02  0.356E-02  0.356E-02
   8.039  0.222E-02  0.111E-02  0.111E-02
   8.041  0.455E-02  0.228E-02  0.228E-02
   8.043  0.296E-02  0.148E-02  0.148E-02
   8.045  0.953E-03  0.476E-03  0.476E-03
   8.047  0.249E-02  0.125E-02  0.125E-02
   8.049  0.271E-02  0.135E-02  0.135E-02
   8.051  0.574E-02  0.287E-02  0.287E-02
   8.053  0.278E-02  0.139E-02  0.139E-02
   8.055  0.186E-03  0.928E-04  0.928E-04
   8.057  0.132E-03  0.662E-04  0.662E-04
   8.059  0.354E-02  0.177E-02  0.177E-02
   8.061  0.130E-01  0.649E-02  0.649E-02
   8.063  0.646E-02  0.323E-02  0.323E-02
   8.065  0.137E-02  0.685E-03  0.685E-03
   8.067  0.701E-02  0.351E-02  0.351E-02
   8.069  0.940E-02  0.470E-02  0.470E-02
   8.071  0.571E-02  0.285E-02  0.285E-02
   8.073  0.285E-02  0.143E-02  0.143E-02
   8.075  0.667E-02  0.333E-02  0.333E-02
   8.077  0.349E-02  0.175E-02  0.175E-02
   8.079  0.249E-03  0.125E-03  0.125E-03
   8.081  0.240E-05  0.120E-05  0.120E-05
   8.083  0.314E-08  0.157E-08  0.157E-08
   8.085  0.772E-08  0.386E-08  0.386E-08
   8.087  0.354E-05  0.177E-05  0.177E-05
   8.089  0.220E-03  0.110E-03  0.110E-03
   8.091  0.185E-02  0.927E-03  0.927E-03
   8.093  0.238E-02  0.119E-02  0.119E-02
   8.095  0.354E-02  0.177E-02  0.177E-02
   8.097  0.516E-02  0.258E-02  0.258E-02
   8.099  0.132E-02  0.661E-03  0.661E-03
   8.101  0.349E-02  0.174E-02  0.174E-02
   8.103  0.159E-01  0.797E-02  0.797E-02
   8.105  0.234E-01  0.117E-01  0.117E-01
   8.107  0.636E-02  0.318E-02  0.318E-02
   8.109  0.252E-03  0.126E-03  0.126E-03
   8.111  0.141E-05  0.704E-06  0.704E-06
   8.113  0.289E-05  0.145E-05  0.145E-05
   8.115  0.280E-03  0.140E-03  0.140E-03
   8.117  0.366E-02  0.183E-02  0.183E-02
   8.119  0.649E-02  0.324E-02  0.324E-02
   8.121  0.156E-02  0.778E-03  0.778E-03
   8.123  0.652E-04  0.326E-04  0.326E-04
   8.125  0.488E-03  0.244E-03  0.244E-03
   8.127  0.219E-02  0.109E-02  0.109E-02
   8.129  0.149E-02  0.746E-03  0.746E-03
   8.131  0.177E-02  0.886E-03  0.886E-03
   8.133  0.240E-02  0.120E-02  0.120E-02
   8.135  0.261E-02  0.131E-02  0.131E-02
   8.137  0.534E-02  0.267E-02  0.267E-02
   8.139  0.220E-02  0.110E-02  0.110E-02
   8.141  0.560E-02  0.280E-02  0.280E-02
   8.143  0.196E-01  0.979E-02  0.979E-02
   8.145  0.241E-01  0.121E-01  0.121E-01
   8.147  0.113E-01  0.566E-02  0.566E-02
   8.149  0.194E-01  0.972E-02  0.972E-02
   8.151  0.168E-01  0.840E-02  0.840E-02
   8.153  0.296E-02  0.148E-02  0.148E-02
   8.155  0.277E-02  0.138E-02  0.138E-02
   8.157  0.102E-01  0.509E-02  0.509E-02
   8.159  0.832E-02  0.416E-02  0.416E-02
   8.161  0.736E-02  0.368E-02  0.368E-02
   8.163  0.293E-02  0.147E-02  0.147E-02
   8.165  0.358E-03  0.179E-03  0.179E-03
   8.167  0.342E-02  0.171E-02  0.171E-02
   8.169  0.112E-01  0.560E-02  0.560E-02
   8.171  0.117E-01  0.584E-02  0.584E-02
   8.173  0.691E-02  0.345E-02  0.345E-02
   8.175  0.125E-02  0.623E-03  0.623E-03
   8.177  0.367E-04  0.183E-04  0.183E-04
   8.179  0.163E-04  0.817E-05  0.817E-05
   8.181  0.849E-03  0.425E-03  0.425E-03
   8.183  0.640E-02  0.320E-02  0.320E-02
   8.185  0.913E-02  0.456E-02  0.456E-02
   8.187  0.711E-02  0.355E-02  0.355E-02
   8.189  0.110E-01  0.549E-02  0.549E-02
   8.191  0.467E-02  0.234E-02  0.234E-02
   8.193  0.101E-02  0.504E-03  0.504E-03
   8.195  0.673E-02  0.336E-02  0.336E-02
   8.197  0.165E-01  0.823E-02  0.823E-02
   8.199  0.100E-01  0.502E-02  0.502E-02
   8.201  0.967E-02  0.484E-02  0.484E-02
   8.203  0.147E-01  0.736E-02  0.736E-02
   8.205  0.700E-02  0.350E-02  0.350E-02
   8.207  0.505E-02  0.253E-02  0.253E-02
   8.209  0.568E-02  0.284E-02  0.284E-02
   8.211  0.132E-02  0.659E-03  0.659E-03
   8.213  0.465E-04  0.232E-04  0.232E-04
   8.215  0.252E-03  0.126E-03  0.126E-03
   8.217  0.199E-02  0.993E-03  0.993E-03
   8.219  0.213E-02  0.106E-02  0.106E-02
   8.221  0.813E-03  0.406E-03  0.406E-03
   8.223  0.535E-02  0.268E-02  0.268E-02
   8.225  0.796E-02  0.398E-02  0.398E-02
   8.227  0.422E-02  0.211E-02  0.211E-02
   8.229  0.316E-02  0.158E-02  0.158E-02
   8.231  0.515E-03  0.258E-03  0.258E-03
   8.233  0.161E-02  0.806E-03  0.806E-03
   8.235  0.110E-01  0.550E-02  0.550E-02
   8.237  0.104E-01  0.522E-02  0.522E-02
   8.239  0.278E-02  0.139E-02  0.139E-02
   8.241  0.701E-02  0.350E-02  0.350E-02
   8.243  0.965E-02  0.482E-02  0.482E-02
   8.245  0.156E-01  0.779E-02  0.779E-02
   8.247  0.153E-01  0.763E-02  0.763E-02
   8.249  0.156E-01  0.781E-02  0.781E-02
   8.251  0.120E-01  0.600E-02  0.600E-02
   8.253  0.321E-02  0.161E-02  0.161E-02
   8.255  0.355E-02  0.178E-02  0.178E-02
   8.257  0.999E-03  0.499E-03  0.499E-03
   8.259  0.383E-04  0.191E-04  0.191E-04
   8.261  0.199E-06  0.994E-07  0.994E-07
   8.263  0.140E-09  0.698E-10  0.698E-10
   8.265  0.133E-13  0.663E-14  0.663E-14
   8.267  0.185E-14  0.923E-15  0.923E-15
   8.269  0.385E-10  0.193E-10  0.193E-10
   8.271  0.111E-06  0.553E-07  0.553E-07
   8.273  0.436E-04  0.218E-04  0.218E-04
   8.275  0.237E-02  0.118E-02  0.118E-02
   8.277  0.176E-01  0.882E-02  0.882E-02
   8.279  0.181E-01  0.903E-02  0.903E-02
   8.281  0.288E-02  0.144E-02  0.144E-02
   8.283  0.624E-02  0.312E-02  0.312E-02
   8.285  0.154E-01  0.768E-02  0.768E-02
   8.287  0.521E-02  0.261E-02  0.261E-02
   8.289  0.243E-03  0.121E-03  0.121E-03
   8.291  0.619E-04  0.309E-04  0.309E-04
   8.293  0.242E-02  0.121E-02  0.121E-02
   8.295  0.132E-01  0.658E-02  0.658E-02
   8.297  0.968E-02  0.484E-02  0.484E-02
   8.299  0.981E-03  0.490E-03  0.490E-03
   8.301  0.580E-03  0.290E-03  0.290E-03
   8.303  0.258E-02  0.129E-02  0.129E-02
   8.305  0.252E-02  0.126E-02  0.126E-02
   8.307  0.706E-02  0.353E-02  0.353E-02
   8.309  0.204E-01  0.102E-01  0.102E-01
   8.311  0.188E-01  0.938E-02  0.938E-02
   8.313  0.338E-02  0.169E-02  0.169E-02
   8.315  0.136E-03  0.678E-04  0.678E-04
   8.317  0.820E-03  0.410E-03  0.410E-03
   8.319  0.314E-02  0.157E-02  0.157E-02
   8.321  0.163E-02  0.813E-03  0.813E-03
   8.323  0.114E-03  0.570E-04  0.570E-04
   8.325  0.282E-04  0.141E-04  0.141E-04
   8.327  0.740E-03  0.370E-03  0.370E-03
   8.329  0.274E-02  0.137E-02  0.137E-02
   8.331  0.160E-02  0.799E-03  0.799E-03
   8.333  0.473E-02  0.237E-02  0.237E-02
   8.335  0.130E-01  0.652E-02  0.652E-02
   8.337  0.953E-02  0.476E-02  0.476E-02
   8.339  0.142E-01  0.708E-02  0.708E-02
   8.341  0.982E-02  0.491E-02  0.491E-02
   8.343  0.110E-01  0.548E-02  0.548E-02
   8.345  0.230E-01  0.115E-01  0.115E-01
   8.347  0.119E-01  0.595E-02  0.595E-02
   8.349  0.110E-02  0.551E-03  0.551E-03
   8.351  0.152E-04  0.758E-05  0.758E-05
   8.353  0.183E-04  0.913E-05  0.913E-05
   8.355  0.620E-03  0.310E-03  0.310E-03
   8.357  0.286E-02  0.143E-02  0.143E-02
   8.359  0.182E-02  0.912E-03  0.912E-03
   8.361  0.172E-02  0.862E-03  0.862E-03
   8.363  0.933E-02  0.467E-02  0.467E-02
   8.365  0.115E-01  0.574E-02  0.574E-02
   8.367  0.582E-02  0.291E-02  0.291E-02
   8.369  0.374E-02  0.187E-02  0.187E-02
   8.371  0.583E-03  0.292E-03  0.292E-03
   8.373  0.127E-04  0.633E-05  0.633E-05
   8.375  0.468E-06  0.234E-06  0.234E-06
   8.377  0.951E-04  0.476E-04  0.476E-04
   8.379  0.284E-02  0.142E-02  0.142E-02
   8.381  0.120E-01  0.599E-02  0.599E-02
   8.383  0.143E-01  0.715E-02  0.715E-02
   8.385  0.261E-01  0.130E-01  0.130E-01
   8.387  0.169E-01  0.846E-02  0.846E-02
   8.389  0.284E-02  0.142E-02  0.142E-02
   8.391  0.191E-03  0.955E-04  0.955E-04
   8.393  0.220E-02  0.110E-02  0.110E-02
   8.395  0.133E-01  0.666E-02  0.666E-02
   8.397  0.115E-01  0.576E-02  0.576E-02
   8.399  0.822E-02  0.411E-02  0.411E-02
   8.401  0.159E-01  0.794E-02  0.794E-02
   8.403  0.675E-02  0.338E-02  0.338E-02
   8.405  0.141E-02  0.703E-03  0.703E-03
   8.407  0.286E-02  0.143E-02  0.143E-02
   8.409  0.154E-02  0.772E-03  0.772E-03
   8.411  0.630E-02  0.315E-02  0.315E-02
   8.413  0.143E-01  0.717E-02  0.717E-02
   8.415  0.464E-02  0.232E-02  0.232E-02
   8.417  0.255E-02  0.128E-02  0.128E-02
   8.419  0.195E-01  0.977E-02  0.977E-02
   8.421  0.346E-01  0.173E-01  0.173E-01
   8.423  0.238E-01  0.119E-01  0.119E-01
   8.425  0.782E-02  0.391E-02  0.391E-02
   8.427  0.711E-02  0.355E-02  0.355E-02
   8.429  0.475E-02  0.237E-02  0.237E-02
   8.431  0.383E-02  0.192E-02  0.192E-02
   8.433  0.917E-02  0.458E-02  0.458E-02
   8.435  0.168E-01  0.842E-02  0.842E-02
   8.437  0.145E-01  0.724E-02  0.724E-02
   8.439  0.472E-02  0.236E-02  0.236E-02
   8.441  0.214E-02  0.107E-02  0.107E-02
   8.443  0.109E-01  0.546E-02  0.546E-02
   8.445  0.223E-01  0.112E-01  0.112E-01
   8.447  0.105E-01  0.524E-02  0.524E-02
   8.449  0.914E-03  0.457E-03  0.457E-03
   8.451  0.360E-04  0.180E-04  0.180E-04
   8.453  0.995E-03  0.498E-03  0.498E-03
   8.455  0.606E-02  0.303E-02  0.303E-02
   8.457  0.506E-02  0.253E-02  0.253E-02
   8.459  0.324E-02  0.162E-02  0.162E-02
   8.461  0.126E-01  0.630E-02  0.630E-02
   8.463  0.799E-02  0.399E-02  0.399E-02
   8.465  0.793E-03  0.396E-03  0.396E-03
   8.467  0.176E-02  0.879E-03  0.879E-03
   8.469  0.660E-02  0.330E-02  0.330E-02
   8.471  0.742E-02  0.371E-02  0.371E-02
   8.473  0.161E-02  0.805E-03  0.805E-03
   8.475  0.509E-04  0.254E-04  0.254E-04
   8.477  0.137E-05  0.685E-06  0.685E-06
   8.479  0.115E-03  0.575E-04  0.575E-04
   8.481  0.174E-02  0.870E-03  0.870E-03
   8.483  0.983E-02  0.491E-02  0.491E-02
   8.485  0.395E-01  0.198E-01  0.198E-01
   8.487  0.440E-01  0.220E-01  0.220E-01
   8.489  0.286E-01  0.143E-01  0.143E-01
   8.491  0.205E-01  0.103E-01  0.103E-01
   8.493  0.250E-01  0.125E-01  0.125E-01
   8.495  0.265E-01  0.132E-01  0.132E-01
   8.497  0.169E-01  0.847E-02  0.847E-02
   8.499  0.956E-02  0.478E-02  0.478E-02
   8.501  0.175E-01  0.875E-02  0.875E-02
   8.503  0.255E-01  0.127E-01  0.127E-01
   8.505  0.164E-01  0.822E-02  0.822E-02
   8.507  0.121E-01  0.606E-02  0.606E-02
   8.509  0.107E-01  0.533E-02  0.533E-02
   8.511  0.140E-01  0.702E-02  0.702E-02
   8.513  0.526E-02  0.263E-02  0.263E-02
   8.515  0.315E-02  0.158E-02  0.158E-02
   8.517  0.910E-02  0.455E-02  0.455E-02
   8.519  0.546E-02  0.273E-02  0.273E-02
   8.521  0.113E-01  0.565E-02  0.565E-02
   8.523  0.103E-01  0.516E-02  0.516E-02
   8.525  0.133E-02  0.663E-03  0.663E-03
   8.527  0.107E-02  0.535E-03  0.535E-03
   8.529  0.881E-02  0.441E-02  0.441E-02
   8.531  0.224E-01  0.112E-01  0.112E-01
   8.533  0.302E-01  0.151E-01  0.151E-01
   8.535  0.197E-01  0.987E-02  0.987E-02
   8.537  0.650E-02  0.325E-02  0.325E-02
   8.539  0.170E-01  0.851E-02  0.851E-02
   8.541  0.135E-01  0.676E-02  0.676E-02
   8.543  0.127E-01  0.635E-02  0.635E-02
   8.545  0.227E-01  0.114E-01  0.114E-01
   8.547  0.256E-01  0.128E-01  0.128E-01
   8.549  0.224E-01  0.112E-01  0.112E-01
   8.551  0.813E-02  0.406E-02  0.406E-02
   8.553  0.888E-02  0.444E-02  0.444E-02
