# E (eV)  dos(E)    pdos(E)
   7.605  0.336E-02  0.335E-02
   7.607  0.212E+00  0.211E+00
   7.609  0.197E+01  0.196E+01
   7.611  0.411E+01  0.410E+01
   7.613  0.442E+01  0.442E+01
   7.615  0.193E+01  0.193E+01
   7.617  0.200E+00  0.200E+00
   7.619  0.687E+00  0.686E+00
   7.621  0.238E+01  0.237E+01
   7.623  0.112E+01  0.111E+01
   7.625  0.709E-01  0.708E-01
   7.627  0.610E-03  0.609E-03
   7.629  0.710E-06  0.709E-06
   7.631  0.112E-09  0.112E-09
   7.633  0.240E-14  0.240E-14
   7.635  0.185E-11  0.185E-11
   7.637  0.265E-07  0.265E-07
   7.639  0.520E-04  0.520E-04
   7.641  0.142E-01  0.142E-01
   7.643  0.564E+00  0.563E+00
   7.645  0.352E+01  0.351E+01
   7.647  0.375E+01  0.374E+01
   7.649  0.719E+00  0.718E+00
   7.651  0.812E+00  0.811E+00
   7.653  0.240E+01  0.240E+01
   7.655  0.993E+00  0.992E+00
   7.657  0.345E+00  0.344E+00
   7.659  0.196E+01  0.196E+01
   7.661  0.179E+01  0.179E+01
   7.663  0.231E+00  0.231E+00
   7.665  0.395E+00  0.395E+00
   7.667  0.214E+01  0.213E+01
   7.669  0.158E+01  0.157E+01
   7.671  0.158E+00  0.157E+00
   7.673  0.119E-01  0.118E-01
   7.675  0.507E+00  0.506E+00
   7.677  0.370E+01  0.369E+01
   7.679  0.379E+01  0.378E+01
   7.681  0.846E+00  0.845E+00
   7.683  0.201E+01  0.200E+01
   7.685  0.213E+01  0.212E+01
   7.687  0.231E+01  0.230E+01
   7.689  0.164E+01  0.163E+01
   7.691  0.172E+00  0.172E+00
   7.693  0.246E-02  0.246E-02
   7.695  0.475E-05  0.475E-05
   7.697  0.124E-08  0.124E-08
   7.699  0.147E-08  0.147E-08
   7.701  0.624E-05  0.624E-05
   7.703  0.360E-02  0.360E-02
   7.705  0.282E+00  0.282E+00
   7.707  0.301E+01  0.301E+01
   7.709  0.440E+01  0.439E+01
   7.711  0.162E+01  0.162E+01
   7.713  0.242E+01  0.242E+01
   7.715  0.102E+01  0.102E+01
   7.717  0.588E-01  0.587E-01
   7.719  0.458E-03  0.458E-03
   7.721  0.496E-06  0.495E-06
   7.723  0.313E-04  0.313E-04
   7.725  0.111E-01  0.110E-01
   7.727  0.546E+00  0.545E+00
   7.729  0.378E+01  0.378E+01
   7.731  0.369E+01  0.369E+01
   7.733  0.677E+00  0.676E+00
   7.735  0.257E+01  0.256E+01
   7.737  0.811E+01  0.811E+01
   7.739  0.128E+02  0.128E+02
   7.741  0.176E+02  0.175E+02
   7.743  0.208E+02  0.208E+02
   7.745  0.173E+02  0.173E+02
   7.747  0.795E+01  0.794E+01
   7.749  0.450E+01  0.449E+01
   7.751  0.442E+01  0.442E+01
   7.753  0.219E+01  0.219E+01
   7.755  0.207E+01  0.207E+01
   7.757  0.240E+01  0.240E+01
   7.759  0.420E+01  0.420E+01
   7.761  0.619E+01  0.619E+01
   7.763  0.559E+01  0.558E+01
   7.765  0.431E+01  0.430E+01
   7.767  0.391E+01  0.390E+01
   7.769  0.136E+01  0.136E+01
   7.771  0.226E+01  0.225E+01
   7.773  0.391E+01  0.391E+01
   7.775  0.197E+01  0.196E+01
   7.777  0.222E+00  0.222E+00
   7.779  0.624E+00  0.623E+00
   7.781  0.236E+01  0.236E+01
   7.783  0.192E+01  0.192E+01
   7.785  0.507E+01  0.507E+01
   7.787  0.770E+01  0.769E+01
   7.789  0.344E+01  0.344E+01
   7.791  0.163E+01  0.163E+01
   7.793  0.270E+01  0.269E+01
   7.795  0.396E+01  0.396E+01
   7.797  0.520E+01  0.520E+01
   7.799  0.309E+01  0.308E+01
   7.801  0.831E+00  0.830E+00
   7.803  0.234E+01  0.234E+01
   7.805  0.882E+01  0.881E+01
   7.807  0.797E+01  0.796E+01
   7.809  0.202E+01  0.202E+01
   7.811  0.126E+00  0.126E+00
   7.813  0.258E+00  0.258E+00
   7.815  0.190E+01  0.190E+01
   7.817  0.243E+01  0.242E+01
   7.819  0.270E+01  0.270E+01
   7.821  0.383E+01  0.383E+01
   7.823  0.694E+01  0.694E+01
   7.825  0.378E+01  0.378E+01
   7.827  0.262E+01  0.261E+01
   7.829  0.110E+01  0.110E+01
   7.831  0.771E-01  0.770E-01
   7.833  0.547E+00  0.547E+00
   7.835  0.485E+01  0.484E+01
   7.837  0.622E+01  0.621E+01
   7.839  0.120E+01  0.120E+01
   7.841  0.102E+01  0.102E+01
   7.843  0.545E+01  0.545E+01
   7.845  0.914E+01  0.913E+01
   7.847  0.525E+01  0.525E+01
   7.849  0.233E+01  0.233E+01
   7.851  0.976E+01  0.975E+01
   7.853  0.106E+02  0.106E+02
   7.855  0.320E+01  0.319E+01
   7.857  0.206E+00  0.206E+00
   7.859  0.207E-02  0.206E-02
   7.861  0.644E-02  0.643E-02
   7.863  0.308E+00  0.308E+00
   7.865  0.200E+01  0.200E+01
   7.867  0.191E+01  0.191E+01
   7.869  0.179E+01  0.178E+01
   7.871  0.215E+01  0.214E+01
   7.873  0.748E+00  0.747E+00
   7.875  0.210E+01  0.210E+01
   7.877  0.194E+01  0.194E+01
   7.879  0.223E+01  0.223E+01
   7.881  0.300E+01  0.300E+01
   7.883  0.256E+01  0.255E+01
   7.885  0.611E+00  0.610E+00
   7.887  0.214E-01  0.213E-01
   7.889  0.102E-03  0.101E-03
   7.891  0.659E-07  0.658E-07
   7.893  0.237E-05  0.236E-05
   7.895  0.148E-02  0.148E-02
   7.897  0.125E+00  0.125E+00
   7.899  0.144E+01  0.144E+01
   7.901  0.223E+01  0.223E+01
   7.903  0.561E+00  0.560E+00
   7.905  0.128E+01  0.128E+01
   7.907  0.242E+01  0.242E+01
   7.909  0.244E+01  0.244E+01
   7.911  0.479E+01  0.478E+01
   7.913  0.172E+01  0.172E+01
   7.915  0.881E-01  0.880E-01
   7.917  0.633E-03  0.632E-03
   7.919  0.635E-06  0.634E-06
   7.921  0.882E-10  0.881E-10
   7.923  0.124E-11  0.124E-11
   7.925  0.191E-07  0.190E-07
   7.927  0.396E-04  0.395E-04
   7.929  0.111E-01  0.111E-01
   7.931  0.423E+00  0.422E+00
   7.933  0.218E+01  0.217E+01
   7.935  0.157E+01  0.157E+01
   7.937  0.110E+01  0.110E+01
   7.939  0.241E+01  0.241E+01
   7.941  0.939E+00  0.937E+00
   7.943  0.146E+01  0.146E+01
   7.945  0.225E+01  0.225E+01
   7.947  0.983E+00  0.982E+00
   7.949  0.228E+01  0.228E+01
   7.951  0.137E+01  0.137E+01
   7.953  0.112E+00  0.112E+00
   7.955  0.125E-02  0.124E-02
   7.957  0.276E-04  0.276E-04
   7.959  0.837E-02  0.836E-02
   7.961  0.386E+00  0.385E+00
   7.963  0.287E+01  0.286E+01
   7.965  0.499E+01  0.498E+01
   7.967  0.442E+01  0.441E+01
   7.969  0.515E+01  0.514E+01
   7.971  0.326E+01  0.325E+01
   7.973  0.118E+01  0.118E+01
   7.975  0.242E+01  0.242E+01
   7.977  0.131E+01  0.131E+01
   7.979  0.308E+01  0.307E+01
   7.981  0.410E+01  0.410E+01
   7.983  0.982E+00  0.981E+00
   7.985  0.599E-01  0.598E-01
   7.987  0.775E+00  0.774E+00
   7.989  0.409E+01  0.409E+01
   7.991  0.327E+01  0.327E+01
   7.993  0.850E+00  0.849E+00
   7.995  0.223E+01  0.222E+01
   7.997  0.145E+01  0.145E+01
   7.999  0.129E+00  0.128E+00
   8.001  0.154E-02  0.154E-02
   8.003  0.245E-03  0.245E-03
   8.005  0.423E-01  0.423E-01
   8.007  0.109E+01  0.109E+01
   8.009  0.434E+01  0.433E+01
   8.011  0.290E+01  0.289E+01
   8.013  0.177E+01  0.177E+01
   8.015  0.444E+01  0.443E+01
   8.017  0.534E+01  0.534E+01
   8.019  0.362E+01  0.362E+01
   8.021  0.188E+01  0.187E+01
   8.023  0.218E+00  0.218E+00
   8.025  0.359E-02  0.359E-02
   8.027  0.223E-02  0.223E-02
   8.029  0.162E+00  0.162E+00
   8.031  0.160E+01  0.159E+01
   8.033  0.229E+01  0.228E+01
   8.035  0.198E+01  0.198E+01
   8.037  0.214E+01  0.214E+01
   8.039  0.846E+00  0.845E+00
   8.041  0.223E+01  0.223E+01
   8.043  0.147E+01  0.147E+01
   8.045  0.806E+00  0.805E+00
   8.047  0.240E+01  0.239E+01
   8.049  0.177E+01  0.177E+01
   8.051  0.243E+01  0.243E+01
   8.053  0.116E+01  0.116E+01
   8.055  0.772E-01  0.771E-01
   8.057  0.244E-01  0.244E-01
   8.059  0.643E+00  0.642E+00
   8.061  0.236E+01  0.235E+01
   8.063  0.117E+01  0.117E+01
   8.065  0.340E+00  0.339E+00
   8.067  0.199E+01  0.199E+01
   8.069  0.317E+01  0.317E+01
   8.071  0.257E+01  0.256E+01
   8.073  0.115E+01  0.115E+01
   8.075  0.235E+01  0.235E+01
   8.077  0.123E+01  0.123E+01
   8.079  0.877E-01  0.876E-01
   8.081  0.846E-03  0.845E-03
   8.083  0.111E-05  0.111E-05
   8.085  0.731E-05  0.730E-05
   8.087  0.336E-02  0.335E-02
   8.089  0.208E+00  0.208E+00
   8.091  0.175E+01  0.175E+01
   8.093  0.211E+01  0.211E+01
   8.095  0.171E+01  0.171E+01
   8.097  0.226E+01  0.225E+01
   8.099  0.582E+00  0.581E+00
   8.101  0.145E+01  0.145E+01
   8.103  0.472E+01  0.471E+01
   8.105  0.523E+01  0.522E+01
   8.107  0.130E+01  0.129E+01
   8.109  0.494E-01  0.493E-01
   8.111  0.269E-03  0.268E-03
   8.113  0.103E-02  0.102E-02
   8.115  0.993E-01  0.991E-01
   8.117  0.130E+01  0.130E+01
   8.119  0.230E+01  0.230E+01
   8.121  0.552E+00  0.552E+00
   8.123  0.332E-01  0.331E-01
   8.125  0.505E+00  0.504E+00
   8.127  0.227E+01  0.226E+01
   8.129  0.153E+01  0.153E+01
   8.131  0.168E+01  0.168E+01
   8.133  0.220E+01  0.219E+01
   8.135  0.139E+01  0.138E+01
   8.137  0.242E+01  0.241E+01
   8.139  0.991E+00  0.989E+00
   8.141  0.244E+01  0.244E+01
   8.143  0.801E+01  0.800E+01
   8.145  0.874E+01  0.873E+01
   8.147  0.395E+01  0.394E+01
   8.149  0.626E+01  0.625E+01
   8.151  0.405E+01  0.405E+01
   8.153  0.604E+00  0.603E+00
   8.155  0.108E+01  0.108E+01
   8.157  0.430E+01  0.430E+01
   8.159  0.359E+01  0.359E+01
   8.161  0.271E+01  0.270E+01
   8.163  0.105E+01  0.105E+01
   8.165  0.127E+00  0.127E+00
   8.167  0.129E+01  0.129E+01
   8.169  0.510E+01  0.509E+01
   8.171  0.657E+01  0.656E+01
   8.173  0.350E+01  0.349E+01
   8.175  0.562E+00  0.561E+00
   8.177  0.160E-01  0.160E-01
   8.179  0.534E-02  0.534E-02
   8.181  0.279E+00  0.279E+00
   8.183  0.221E+01  0.220E+01
   8.185  0.381E+01  0.380E+01
   8.187  0.278E+01  0.278E+01
   8.189  0.262E+01  0.262E+01
   8.191  0.106E+01  0.106E+01
   8.193  0.392E+00  0.391E+00
   8.195  0.245E+01  0.244E+01
   8.197  0.392E+01  0.391E+01
   8.199  0.196E+01  0.196E+01
   8.201  0.307E+01  0.306E+01
   8.203  0.515E+01  0.515E+01
   8.205  0.341E+01  0.341E+01
   8.207  0.243E+01  0.242E+01
   8.209  0.236E+01  0.236E+01
   8.211  0.544E+00  0.543E+00
   8.213  0.214E-01  0.213E-01
   8.215  0.230E+00  0.230E+00
   8.217  0.181E+01  0.181E+01
   8.219  0.194E+01  0.194E+01
   8.221  0.424E+00  0.423E+00
   8.223  0.153E+01  0.153E+01
   8.225  0.238E+01  0.238E+01
   8.227  0.217E+01  0.217E+01
   8.229  0.201E+01  0.201E+01
   8.231  0.324E+00  0.323E+00
   8.233  0.670E+00  0.669E+00
   8.235  0.404E+01  0.403E+01
   8.237  0.344E+01  0.343E+01
   8.239  0.908E+00  0.907E+00
   8.241  0.250E+01  0.249E+01
   8.243  0.338E+01  0.338E+01
   8.245  0.379E+01  0.378E+01
   8.247  0.315E+01  0.314E+01
   8.249  0.590E+01  0.589E+01
   8.251  0.565E+01  0.564E+01
   8.253  0.195E+01  0.195E+01
   8.255  0.239E+01  0.238E+01
   8.257  0.672E+00  0.671E+00
   8.259  0.258E-01  0.257E-01
   8.261  0.134E-03  0.133E-03
   8.263  0.939E-07  0.938E-07
   8.265  0.892E-11  0.891E-11
   8.267  0.606E-12  0.606E-12
   8.269  0.125E-07  0.125E-07
   8.271  0.357E-04  0.356E-04
   8.273  0.140E-01  0.139E-01
   8.275  0.752E+00  0.751E+00
   8.277  0.557E+01  0.556E+01
   8.279  0.568E+01  0.567E+01
   8.281  0.888E+00  0.887E+00
   8.283  0.182E+01  0.182E+01
   8.285  0.480E+01  0.480E+01
   8.287  0.175E+01  0.175E+01
   8.289  0.882E-01  0.880E-01
   8.291  0.104E-01  0.104E-01
   8.293  0.394E+00  0.393E+00
   8.295  0.214E+01  0.214E+01
   8.297  0.157E+01  0.157E+01
   8.299  0.172E+00  0.171E+00
   8.301  0.505E+00  0.504E+00
   8.303  0.228E+01  0.227E+01
   8.305  0.188E+01  0.187E+01
   8.307  0.312E+01  0.311E+01
   8.309  0.659E+01  0.658E+01
   8.311  0.584E+01  0.584E+01
   8.313  0.110E+01  0.110E+01
   8.315  0.578E-01  0.577E-01
   8.317  0.612E+00  0.611E+00
   8.319  0.234E+01  0.234E+01
   8.321  0.121E+01  0.121E+01
   8.323  0.852E-01  0.850E-01
   8.325  0.241E-01  0.240E-01
   8.327  0.637E+00  0.635E+00
   8.329  0.235E+01  0.235E+01
   8.331  0.122E+01  0.122E+01
   8.333  0.960E+00  0.958E+00
   8.335  0.253E+01  0.252E+01
   8.337  0.272E+01  0.271E+01
   8.339  0.601E+01  0.600E+01
   8.341  0.453E+01  0.452E+01
   8.343  0.256E+01  0.256E+01
   8.345  0.421E+01  0.420E+01
   8.347  0.198E+01  0.198E+01
   8.349  0.177E+00  0.177E+00
   8.351  0.246E-02  0.245E-02
   8.353  0.144E-01  0.143E-01
   8.355  0.488E+00  0.488E+00
   8.357  0.225E+01  0.225E+01
   8.359  0.142E+01  0.141E+01
   8.361  0.660E+00  0.659E+00
   8.363  0.321E+01  0.320E+01
   8.365  0.400E+01  0.400E+01
   8.367  0.265E+01  0.265E+01
   8.369  0.207E+01  0.207E+01
   8.371  0.327E+00  0.326E+00
   8.373  0.710E-02  0.709E-02
   8.375  0.108E-03  0.108E-03
   8.377  0.192E-01  0.192E-01
   8.379  0.576E+00  0.575E+00
   8.381  0.248E+01  0.248E+01
   8.383  0.366E+01  0.365E+01
   8.385  0.720E+01  0.719E+01
   8.387  0.569E+01  0.568E+01
   8.389  0.164E+01  0.163E+01
   8.391  0.120E+00  0.119E+00
   8.393  0.342E+00  0.341E+00
   8.395  0.206E+01  0.206E+01
   8.397  0.210E+01  0.210E+01
   8.399  0.377E+01  0.377E+01
   8.401  0.630E+01  0.629E+01
   8.403  0.239E+01  0.238E+01
   8.405  0.952E+00  0.950E+00
   8.407  0.241E+01  0.240E+01
   8.409  0.111E+01  0.111E+01
   8.411  0.212E+01  0.212E+01
   8.413  0.476E+01  0.475E+01
   8.415  0.154E+01  0.154E+01
   8.417  0.785E+00  0.784E+00
   8.419  0.559E+01  0.558E+01
   8.421  0.969E+01  0.968E+01
   8.423  0.739E+01  0.739E+01
   8.425  0.257E+01  0.257E+01
   8.427  0.236E+01  0.235E+01
   8.429  0.167E+01  0.166E+01
   8.431  0.204E+01  0.204E+01
   8.433  0.375E+01  0.375E+01
   8.435  0.419E+01  0.418E+01
   8.437  0.353E+01  0.353E+01
   8.439  0.275E+01  0.274E+01
   8.441  0.113E+01  0.113E+01
   8.443  0.298E+01  0.298E+01
   8.445  0.561E+01  0.560E+01
   8.447  0.340E+01  0.339E+01
   8.449  0.434E+00  0.434E+00
   8.451  0.164E-01  0.164E-01
   8.453  0.337E+00  0.337E+00
   8.455  0.205E+01  0.205E+01
   8.457  0.170E+01  0.170E+01
   8.459  0.665E+00  0.664E+00
   8.461  0.224E+01  0.224E+01
   8.463  0.142E+01  0.142E+01
   8.465  0.211E+00  0.210E+00
   8.467  0.133E+01  0.133E+01
   8.469  0.365E+01  0.364E+01
   8.471  0.290E+01  0.289E+01
   8.473  0.564E+00  0.563E+00
   8.475  0.175E-01  0.175E-01
   8.477  0.103E-02  0.103E-02
   8.479  0.949E-01  0.946E-01
   8.481  0.131E+01  0.131E+01
   8.483  0.369E+01  0.368E+01
   8.485  0.831E+01  0.830E+01
   8.487  0.970E+01  0.969E+01
   8.489  0.674E+01  0.673E+01
   8.491  0.434E+01  0.434E+01
   8.493  0.426E+01  0.426E+01
   8.495  0.560E+01  0.559E+01
   8.497  0.598E+01  0.598E+01
   8.499  0.427E+01  0.427E+01
   8.501  0.421E+01  0.421E+01
   8.503  0.467E+01  0.466E+01
   8.505  0.363E+01  0.363E+01
   8.507  0.355E+01  0.354E+01
   8.509  0.289E+01  0.289E+01
   8.511  0.267E+01  0.267E+01
   8.513  0.965E+00  0.964E+00
   8.515  0.812E+00  0.811E+00
   8.517  0.240E+01  0.240E+01
   8.519  0.130E+01  0.130E+01
   8.521  0.200E+01  0.200E+01
   8.523  0.181E+01  0.181E+01
   8.525  0.251E+00  0.250E+00
   8.527  0.733E+00  0.731E+00
   8.529  0.428E+01  0.427E+01
   8.531  0.686E+01  0.685E+01
   8.533  0.589E+01  0.588E+01
   8.535  0.747E+01  0.746E+01
   8.537  0.186E+02  0.186E+02
   8.539  0.205E+02  0.204E+02
   8.541  0.137E+02  0.137E+02
   8.543  0.108E+02  0.108E+02
   8.545  0.133E+02  0.133E+02
   8.547  0.122E+02  0.122E+02
   8.549  0.924E+01  0.923E+01
   8.551  0.949E+01  0.948E+01
   8.553  0.831E+01  0.830E+01
   8.555  0.769E+01  0.767E+01
   8.557  0.933E+01  0.932E+01
   8.559  0.432E+01  0.431E+01
   8.561  0.349E+01  0.348E+01
   8.563  0.538E+01  0.537E+01
   8.565  0.771E+01  0.770E+01
   8.567  0.691E+01  0.690E+01
   8.569  0.351E+01  0.351E+01
   8.571  0.448E+01  0.447E+01
   8.573  0.545E+01  0.545E+01
   8.575  0.504E+01  0.504E+01
   8.577  0.556E+01  0.555E+01
   8.579  0.629E+01  0.629E+01
   8.581  0.306E+01  0.305E+01
   8.583  0.813E+01  0.812E+01
   8.585  0.114E+02  0.114E+02
   8.587  0.467E+01  0.466E+01
   8.589  0.260E+01  0.260E+01
   8.591  0.189E+01  0.189E+01
   8.593  0.323E+01  0.323E+01
   8.595  0.567E+01  0.567E+01
   8.597  0.544E+01  0.543E+01
   8.599  0.229E+01  0.228E+01
   8.601  0.196E+01  0.196E+01
   8.603  0.198E+01  0.197E+01
   8.605  0.352E+00  0.352E+00
   8.607  0.146E+01  0.146E+01
   8.609  0.780E+01  0.778E+01
   8.611  0.178E+02  0.177E+02
   8.613  0.186E+02  0.185E+02
   8.615  0.123E+02  0.123E+02
   8.617  0.854E+01  0.852E+01
   8.619  0.760E+01  0.759E+01
   8.621  0.105E+02  0.105E+02
   8.623  0.129E+02  0.128E+02
   8.625  0.599E+01  0.598E+01
   8.627  0.445E+01  0.444E+01
   8.629  0.714E+01  0.713E+01
   8.631  0.526E+01  0.526E+01
   8.633  0.284E+01  0.284E+01
   8.635  0.130E+01  0.130E+01
   8.637  0.400E+01  0.400E+01
   8.639  0.585E+01  0.584E+01
   8.641  0.544E+01  0.544E+01
   8.643  0.719E+01  0.718E+01
   8.645  0.102E+02  0.102E+02
   8.647  0.956E+01  0.954E+01
   8.649  0.398E+01  0.398E+01
   8.651  0.759E+00  0.758E+00
   8.653  0.303E+01  0.303E+01
   8.655  0.783E+01  0.782E+01
   8.657  0.117E+02  0.117E+02
   8.659  0.733E+01  0.732E+01
   8.661  0.516E+01  0.516E+01
   8.663  0.268E+01  0.268E+01
   8.665  0.399E+00  0.399E+00
   8.667  0.240E+01  0.240E+01
   8.669  0.653E+01  0.652E+01
   8.671  0.574E+01  0.573E+01
   8.673  0.356E+01  0.355E+01
   8.675  0.869E+01  0.867E+01
   8.677  0.108E+02  0.108E+02
   8.679  0.797E+01  0.795E+01
   8.681  0.102E+02  0.102E+02
   8.683  0.130E+02  0.130E+02
   8.685  0.705E+01  0.704E+01
   8.687  0.164E+01  0.164E+01
   8.689  0.351E+01  0.351E+01
   8.691  0.549E+01  0.548E+01
   8.693  0.287E+01  0.287E+01
   8.695  0.185E+01  0.184E+01
   8.697  0.312E+01  0.312E+01
   8.699  0.509E+01  0.508E+01
   8.701  0.867E+01  0.866E+01
   8.703  0.108E+02  0.108E+02
   8.705  0.106E+02  0.106E+02
   8.707  0.329E+01  0.328E+01
   8.709  0.542E+01  0.542E+01
   8.711  0.588E+01  0.587E+01
   8.713  0.168E+01  0.167E+01
   8.715  0.685E+01  0.684E+01
   8.717  0.167E+02  0.167E+02
   8.719  0.133E+02  0.133E+02
   8.721  0.175E+02  0.174E+02
   8.723  0.180E+02  0.180E+02
   8.725  0.116E+02  0.115E+02
   8.727  0.458E+01  0.457E+01
   8.729  0.514E+00  0.513E+00
   8.731  0.620E+00  0.619E+00
   8.733  0.234E+01  0.234E+01
   8.735  0.123E+01  0.122E+01
   8.737  0.619E+00  0.618E+00
   8.739  0.372E+01  0.372E+01
   8.741  0.373E+01  0.373E+01
   8.743  0.610E+00  0.609E+00
   8.745  0.114E+01  0.114E+01
   8.747  0.242E+01  0.241E+01
   8.749  0.168E+01  0.168E+01
   8.751  0.363E+01  0.363E+01
   8.753  0.429E+01  0.428E+01
   8.755  0.692E+01  0.689E+01
   8.757  0.496E+01  0.494E+01
   8.759  0.869E+00  0.866E+00
   8.761  0.225E+01  0.224E+01
   8.763  0.367E+01  0.367E+01
   8.765  0.499E+01  0.498E+01
   8.767  0.483E+01  0.481E+01
   8.769  0.101E+01  0.100E+01
   8.771  0.502E+00  0.501E+00
   8.773  0.227E+01  0.227E+01
   8.775  0.257E+01  0.257E+01
   8.777  0.472E+01  0.472E+01
   8.779  0.257E+01  0.256E+01
   8.781  0.198E+00  0.197E+00
   8.783  0.224E-02  0.224E-02
   8.785  0.256E-01  0.256E-01
   8.787  0.670E+00  0.669E+00
   8.789  0.237E+01  0.237E+01
   8.791  0.114E+01  0.114E+01
   8.793  0.367E+00  0.366E+00
   8.795  0.197E+01  0.196E+01
   8.797  0.178E+01  0.178E+01
   8.799  0.220E+00  0.219E+00
   8.801  0.108E+00  0.108E+00
   8.803  0.236E+01  0.235E+01
   8.805  0.720E+01  0.718E+01
   8.807  0.299E+01  0.299E+01
   8.809  0.169E+00  0.169E+00
   8.811  0.169E-01  0.169E-01
   8.813  0.518E+00  0.518E+00
   8.815  0.262E+01  0.262E+01
   8.817  0.383E+01  0.382E+01
   8.819  0.444E+01  0.444E+01
   8.821  0.404E+01  0.403E+01
   8.823  0.152E+01  0.151E+01
   8.825  0.112E+00  0.112E+00
   8.827  0.120E-02  0.120E-02
   8.829  0.517E-03  0.516E-03
   8.831  0.635E-01  0.634E-01
   8.833  0.106E+01  0.106E+01
   8.835  0.239E+01  0.239E+01
   8.837  0.731E+00  0.730E+00
   8.839  0.121E+00  0.121E+00
   8.841  0.131E+01  0.131E+01
   8.843  0.342E+01  0.341E+01
   8.845  0.297E+01  0.297E+01
   8.847  0.769E+00  0.768E+00
   8.849  0.910E+00  0.908E+00
   8.851  0.241E+01  0.241E+01
   8.853  0.893E+00  0.891E+00
   8.855  0.465E-01  0.464E-01
   8.857  0.142E+00  0.142E+00
   8.859  0.151E+01  0.151E+01
   8.861  0.219E+01  0.218E+01
   8.863  0.648E+00  0.646E+00
   8.865  0.180E+01  0.180E+01
   8.867  0.217E+01  0.216E+01
   8.869  0.283E+01  0.283E+01
   8.871  0.456E+01  0.456E+01
   8.873  0.119E+01  0.119E+01
   8.875  0.452E-01  0.451E-01
   8.877  0.245E-03  0.244E-03
   8.879  0.186E-06  0.186E-06
   8.881  0.109E-08  0.108E-08
   8.883  0.422E-05  0.421E-05
   8.885  0.226E-02  0.225E-02
   8.887  0.163E+00  0.163E+00
   8.889  0.160E+01  0.159E+01
   8.891  0.212E+01  0.211E+01
