# E (eV)   ldos(E)   pdos(E)_1   pdos(E)_2   
   7.605  0.191E-04  0.954E-05  0.954E-05
   7.607  0.120E-02  0.598E-03  0.598E-03
   7.609  0.107E-01  0.533E-02  0.533E-02
   7.611  0.182E-01  0.910E-02  0.910E-02
   7.613  0.148E-01  0.742E-02  0.742E-02
   7.615  0.605E-02  0.302E-02  0.302E-02
   7.617  0.615E-03  0.308E-03  0.308E-03
   7.619  0.198E-02  0.989E-03  0.989E-03
   7.621  0.684E-02  0.342E-02  0.342E-02
   7.623  0.321E-02  0.161E-02  0.161E-02
   7.625  0.204E-03  0.102E-03  0.102E-03
   7.627  0.176E-05  0.878E-06  0.878E-06
   7.629  0.204E-08  0.102E-08  0.102E-08
   7.631  0.322E-12  0.161E-12  0.161E-12
   7.633  0.691E-17  0.346E-17  0.346E-17
   7.635  0.523E-14  0.261E-14  0.261E-14
   7.637  0.749E-10  0.374E-10  0.374E-10
   7.639  0.147E-06  0.733E-07  0.733E-07
   7.641  0.400E-04  0.200E-04  0.200E-04
   7.643  0.158E-02  0.789E-03  0.789E-03
   7.645  0.975E-02  0.488E-02  0.488E-02
   7.647  0.103E-01  0.513E-02  0.513E-02
   7.649  0.194E-02  0.971E-03  0.971E-03
   7.651  0.205E-02  0.102E-02  0.102E-02
   7.653  0.605E-02  0.302E-02  0.302E-02
   7.655  0.252E-02  0.126E-02  0.126E-02
   7.657  0.196E-02  0.978E-03  0.978E-03
   7.659  0.123E-01  0.614E-02  0.614E-02
   7.661  0.112E-01  0.561E-02  0.561E-02
   7.663  0.144E-02  0.721E-03  0.721E-03
   7.665  0.216E-02  0.108E-02  0.108E-02
   7.667  0.117E-01  0.584E-02  0.584E-02
   7.669  0.862E-02  0.431E-02  0.431E-02
   7.671  0.861E-03  0.430E-03  0.430E-03
   7.673  0.346E-04  0.173E-04  0.173E-04
   7.675  0.119E-02  0.595E-03  0.595E-03
   7.677  0.865E-02  0.432E-02  0.432E-02
   7.679  0.883E-02  0.441E-02  0.441E-02
   7.681  0.191E-02  0.957E-03  0.957E-03
   7.683  0.438E-02  0.219E-02  0.219E-02
   7.685  0.701E-02  0.351E-02  0.351E-02
   7.687  0.190E-01  0.949E-02  0.949E-02
   7.689  0.145E-01  0.723E-02  0.723E-02
   7.691  0.152E-02  0.762E-03  0.762E-03
   7.693  0.218E-04  0.109E-04  0.109E-04
   7.695  0.421E-07  0.210E-07  0.210E-07
   7.697  0.110E-10  0.550E-11  0.550E-11
   7.699  0.283E-11  0.142E-11  0.142E-11
   7.701  0.120E-07  0.602E-08  0.602E-08
   7.703  0.694E-05  0.347E-05  0.347E-05
   7.705  0.545E-03  0.273E-03  0.273E-03
   7.707  0.582E-02  0.291E-02  0.291E-02
   7.709  0.851E-02  0.425E-02  0.425E-02
   7.711  0.304E-02  0.152E-02  0.152E-02
   7.713  0.437E-02  0.218E-02  0.218E-02
   7.715  0.184E-02  0.920E-03  0.920E-03
   7.717  0.106E-03  0.530E-04  0.530E-04
   7.719  0.826E-06  0.413E-06  0.413E-06
   7.721  0.936E-09  0.468E-09  0.468E-09
   7.723  0.168E-06  0.840E-07  0.840E-07
   7.725  0.600E-04  0.300E-04  0.300E-04
   7.727  0.300E-02  0.150E-02  0.150E-02
   7.729  0.210E-01  0.105E-01  0.105E-01
   7.731  0.208E-01  0.104E-01  0.104E-01
   7.733  0.318E-02  0.159E-02  0.159E-02
   7.735  0.579E-02  0.289E-02  0.289E-02
   7.737  0.391E-01  0.196E-01  0.196E-01
   7.739  0.997E-01  0.499E-01  0.499E-01
   7.741  0.147E+00  0.734E-01  0.734E-01
   7.743  0.191E+00  0.956E-01  0.956E-01
   7.745  0.162E+00  0.808E-01  0.808E-01
   7.747  0.744E-01  0.372E-01  0.372E-01
   7.749  0.419E-01  0.209E-01  0.209E-01
   7.751  0.409E-01  0.204E-01  0.204E-01
   7.753  0.204E-01  0.102E-01  0.102E-01
   7.755  0.195E-01  0.974E-02  0.974E-02
   7.757  0.224E-01  0.112E-01  0.112E-01
   7.759  0.368E-01  0.184E-01  0.184E-01
   7.761  0.369E-01  0.185E-01  0.185E-01
   7.763  0.111E-01  0.556E-02  0.556E-02
   7.765  0.117E-01  0.586E-02  0.586E-02
   7.767  0.243E-01  0.122E-01  0.122E-01
   7.769  0.116E-01  0.582E-02  0.582E-02
   7.771  0.206E-01  0.103E-01  0.103E-01
   7.773  0.349E-01  0.175E-01  0.175E-01
   7.775  0.172E-01  0.860E-02  0.860E-02
   7.777  0.195E-02  0.973E-03  0.973E-03
   7.779  0.580E-02  0.290E-02  0.290E-02
   7.781  0.218E-01  0.109E-01  0.109E-01
   7.783  0.121E-01  0.604E-02  0.604E-02
   7.785  0.115E-01  0.574E-02  0.574E-02
   7.787  0.265E-01  0.133E-01  0.133E-01
   7.789  0.122E-01  0.608E-02  0.608E-02
   7.791  0.117E-01  0.586E-02  0.586E-02
   7.793  0.216E-01  0.108E-01  0.108E-01
   7.795  0.265E-01  0.133E-01  0.133E-01
   7.797  0.378E-01  0.189E-01  0.189E-01
   7.799  0.269E-01  0.135E-01  0.135E-01
   7.801  0.719E-02  0.359E-02  0.359E-02
   7.803  0.120E-01  0.600E-02  0.600E-02
   7.805  0.358E-01  0.179E-01  0.179E-01
   7.807  0.200E-01  0.998E-02  0.998E-02
   7.809  0.241E-02  0.121E-02  0.121E-02
   7.811  0.125E-03  0.626E-04  0.626E-04
   7.813  0.205E-02  0.103E-02  0.103E-02
   7.815  0.152E-01  0.760E-02  0.760E-02
   7.817  0.200E-01  0.100E-01  0.100E-01
   7.819  0.231E-01  0.116E-01  0.116E-01
   7.821  0.129E-01  0.645E-02  0.645E-02
   7.823  0.389E-02  0.195E-02  0.195E-02
   7.825  0.744E-02  0.372E-02  0.372E-02
   7.827  0.212E-01  0.106E-01  0.106E-01
   7.829  0.971E-02  0.485E-02  0.485E-02
   7.831  0.607E-03  0.304E-03  0.304E-03
   7.833  0.131E-03  0.653E-04  0.653E-04
   7.835  0.111E-02  0.554E-03  0.554E-03
   7.837  0.142E-02  0.708E-03  0.708E-03
   7.839  0.536E-03  0.268E-03  0.268E-03
   7.841  0.830E-02  0.415E-02  0.415E-02
   7.843  0.366E-01  0.183E-01  0.183E-01
   7.845  0.243E-01  0.121E-01  0.121E-01
   7.847  0.279E-02  0.139E-02  0.139E-02
   7.849  0.225E-02  0.112E-02  0.112E-02
   7.851  0.163E-01  0.815E-02  0.815E-02
   7.853  0.167E-01  0.833E-02  0.833E-02
   7.855  0.231E-02  0.115E-02  0.115E-02
   7.857  0.433E-04  0.217E-04  0.217E-04
   7.859  0.196E-06  0.978E-07  0.978E-07
   7.861  0.302E-04  0.151E-04  0.151E-04
   7.863  0.145E-02  0.723E-03  0.723E-03
   7.865  0.939E-02  0.469E-02  0.469E-02
   7.867  0.963E-02  0.481E-02  0.481E-02
   7.869  0.151E-01  0.756E-02  0.756E-02
   7.871  0.192E-01  0.960E-02  0.960E-02
   7.873  0.605E-02  0.302E-02  0.302E-02
   7.875  0.150E-01  0.750E-02  0.750E-02
   7.877  0.142E-01  0.712E-02  0.712E-02
   7.879  0.185E-01  0.925E-02  0.925E-02
   7.881  0.217E-01  0.109E-01  0.109E-01
   7.883  0.144E-01  0.718E-02  0.718E-02
   7.885  0.328E-02  0.164E-02  0.164E-02
   7.887  0.114E-03  0.571E-04  0.571E-04
   7.889  0.543E-06  0.271E-06  0.271E-06
   7.891  0.354E-09  0.177E-09  0.177E-09
   7.893  0.210E-07  0.105E-07  0.105E-07
   7.895  0.131E-04  0.657E-05  0.657E-05
   7.897  0.111E-02  0.556E-03  0.556E-03
   7.899  0.127E-01  0.637E-02  0.637E-02
   7.901  0.198E-01  0.989E-02  0.989E-02
   7.903  0.485E-02  0.242E-02  0.242E-02
   7.905  0.960E-02  0.480E-02  0.480E-02
   7.907  0.182E-01  0.909E-02  0.909E-02
   7.909  0.186E-01  0.930E-02  0.930E-02
   7.911  0.358E-01  0.179E-01  0.179E-01
   7.913  0.126E-01  0.631E-02  0.631E-02
   7.915  0.631E-03  0.316E-03  0.316E-03
   7.917  0.445E-05  0.222E-05  0.222E-05
   7.919  0.439E-08  0.220E-08  0.220E-08
   7.921  0.604E-12  0.302E-12  0.302E-12
   7.923  0.109E-13  0.546E-14  0.546E-14
   7.925  0.167E-09  0.836E-10  0.836E-10
   7.927  0.347E-06  0.174E-06  0.174E-06
   7.929  0.976E-04  0.488E-04  0.488E-04
   7.931  0.371E-02  0.186E-02  0.186E-02
   7.933  0.191E-01  0.956E-02  0.956E-02
   7.935  0.135E-01  0.677E-02  0.677E-02
   7.937  0.549E-02  0.274E-02  0.274E-02
   7.939  0.106E-01  0.532E-02  0.532E-02
   7.941  0.459E-02  0.229E-02  0.229E-02
   7.943  0.117E-01  0.583E-02  0.583E-02
   7.945  0.182E-01  0.910E-02  0.910E-02
   7.947  0.700E-02  0.350E-02  0.350E-02
   7.949  0.142E-01  0.708E-02  0.708E-02
   7.951  0.850E-02  0.425E-02  0.425E-02
   7.953  0.696E-03  0.348E-03  0.348E-03
   7.955  0.772E-05  0.386E-05  0.386E-05
   7.957  0.140E-06  0.701E-07  0.701E-07
   7.959  0.421E-04  0.210E-04  0.210E-04
   7.961  0.199E-02  0.993E-03  0.993E-03
   7.963  0.158E-01  0.792E-02  0.792E-02
   7.965  0.315E-01  0.158E-01  0.158E-01
   7.967  0.311E-01  0.156E-01  0.156E-01
   7.969  0.388E-01  0.194E-01  0.194E-01
   7.971  0.253E-01  0.126E-01  0.126E-01
   7.973  0.879E-02  0.440E-02  0.440E-02
   7.975  0.175E-01  0.877E-02  0.877E-02
   7.977  0.925E-02  0.462E-02  0.462E-02
   7.979  0.212E-01  0.106E-01  0.106E-01
   7.981  0.297E-01  0.148E-01  0.148E-01
   7.983  0.742E-02  0.371E-02  0.371E-02
   7.985  0.448E-03  0.224E-03  0.224E-03
   7.987  0.532E-02  0.266E-02  0.266E-02
   7.989  0.271E-01  0.135E-01  0.135E-01
   7.991  0.208E-01  0.104E-01  0.104E-01
   7.993  0.519E-02  0.259E-02  0.259E-02
   7.995  0.135E-01  0.677E-02  0.677E-02
   7.997  0.884E-02  0.442E-02  0.442E-02
   7.999  0.782E-03  0.391E-03  0.391E-03
   8.001  0.937E-05  0.469E-05  0.469E-05
   8.003  0.208E-05  0.104E-05  0.104E-05
   8.005  0.357E-03  0.179E-03  0.179E-03
   8.007  0.899E-02  0.450E-02  0.450E-02
   8.009  0.348E-01  0.174E-01  0.174E-01
   8.011  0.221E-01  0.111E-01  0.111E-01
   8.013  0.858E-02  0.429E-02  0.429E-02
   8.015  0.224E-01  0.112E-01  0.112E-01
   8.017  0.327E-01  0.164E-01  0.164E-01
   8.019  0.256E-01  0.128E-01  0.128E-01
   8.021  0.141E-01  0.704E-02  0.704E-02
   8.023  0.165E-02  0.823E-03  0.823E-03
   8.025  0.271E-04  0.136E-04  0.136E-04
   8.027  0.117E-04  0.584E-05  0.584E-05
   8.029  0.845E-03  0.422E-03  0.422E-03
   8.031  0.834E-02  0.417E-02  0.417E-02
   8.033  0.123E-01  0.613E-02  0.613E-02
   8.035  0.136E-01  0.679E-02  0.679E-02
   8.037  0.155E-01  0.777E-02  0.777E-02
   8.039  0.527E-02  0.263E-02  0.263E-02
   8.041  0.120E-01  0.601E-02  0.601E-02
   8.043  0.787E-02  0.393E-02  0.393E-02
   8.045  0.382E-02  0.191E-02  0.191E-02
   8.047  0.112E-01  0.558E-02  0.558E-02
   8.049  0.107E-01  0.536E-02  0.536E-02
   8.051  0.204E-01  0.102E-01  0.102E-01
   8.053  0.987E-02  0.493E-02  0.493E-02
   8.055  0.656E-03  0.328E-03  0.328E-03
   8.057  0.178E-03  0.889E-04  0.889E-04
   8.059  0.466E-02  0.233E-02  0.233E-02
   8.061  0.171E-01  0.854E-02  0.854E-02
   8.063  0.851E-02  0.425E-02  0.425E-02
   8.065  0.243E-02  0.121E-02  0.121E-02
   8.067  0.140E-01  0.700E-02  0.700E-02
   8.069  0.198E-01  0.989E-02  0.989E-02
   8.071  0.133E-01  0.665E-02  0.665E-02
   8.073  0.559E-02  0.280E-02  0.280E-02
   8.075  0.111E-01  0.557E-02  0.557E-02
   8.077  0.582E-02  0.291E-02  0.291E-02
   8.079  0.415E-03  0.207E-03  0.207E-03
   8.081  0.400E-05  0.200E-05  0.200E-05
   8.083  0.524E-08  0.262E-08  0.262E-08
   8.085  0.279E-07  0.140E-07  0.140E-07
   8.087  0.128E-04  0.640E-05  0.640E-05
   8.089  0.796E-03  0.398E-03  0.398E-03
   8.091  0.670E-02  0.335E-02  0.335E-02
   8.093  0.861E-02  0.431E-02  0.431E-02
   8.095  0.130E-01  0.649E-02  0.649E-02
   8.097  0.189E-01  0.947E-02  0.947E-02
   8.099  0.453E-02  0.227E-02  0.227E-02
   8.101  0.707E-02  0.354E-02  0.354E-02
   8.103  0.271E-01  0.136E-01  0.136E-01
   8.105  0.348E-01  0.174E-01  0.174E-01
   8.107  0.890E-02  0.445E-02  0.445E-02
   8.109  0.341E-03  0.170E-03  0.170E-03
   8.111  0.185E-05  0.926E-06  0.926E-06
   8.113  0.435E-05  0.218E-05  0.218E-05
   8.115  0.421E-03  0.211E-03  0.211E-03
   8.117  0.551E-02  0.276E-02  0.276E-02
   8.119  0.977E-02  0.488E-02  0.488E-02
   8.121  0.234E-02  0.117E-02  0.117E-02
   8.123  0.167E-03  0.835E-04  0.835E-04
   8.125  0.302E-02  0.151E-02  0.151E-02
   8.127  0.135E-01  0.676E-02  0.676E-02
   8.129  0.886E-02  0.443E-02  0.443E-02
   8.131  0.729E-02  0.365E-02  0.365E-02
   8.133  0.928E-02  0.464E-02  0.464E-02
   8.135  0.577E-02  0.289E-02  0.289E-02
   8.137  0.100E-01  0.500E-02  0.500E-02
   8.139  0.438E-02  0.219E-02  0.219E-02
   8.141  0.137E-01  0.686E-02  0.686E-02
   8.143  0.486E-01  0.243E-01  0.243E-01
   8.145  0.575E-01  0.288E-01  0.288E-01
   8.147  0.247E-01  0.123E-01  0.123E-01
   8.149  0.362E-01  0.181E-01  0.181E-01
   8.151  0.247E-01  0.123E-01  0.123E-01
   8.153  0.380E-02  0.190E-02  0.190E-02
   8.155  0.588E-02  0.294E-02  0.294E-02
   8.157  0.236E-01  0.118E-01  0.118E-01
   8.159  0.187E-01  0.936E-02  0.936E-02
   8.161  0.108E-01  0.538E-02  0.538E-02
   8.163  0.395E-02  0.198E-02  0.198E-02
   8.165  0.578E-03  0.289E-03  0.289E-03
   8.167  0.677E-02  0.339E-02  0.339E-02
   8.169  0.259E-01  0.129E-01  0.129E-01
   8.171  0.293E-01  0.146E-01  0.146E-01
   8.173  0.136E-01  0.678E-02  0.678E-02
   8.175  0.209E-02  0.105E-02  0.105E-02
   8.177  0.594E-04  0.297E-04  0.297E-04
   8.179  0.275E-04  0.138E-04  0.138E-04
   8.181  0.145E-02  0.724E-03  0.724E-03
   8.183  0.116E-01  0.580E-02  0.580E-02
   8.185  0.210E-01  0.105E-01  0.105E-01
   8.187  0.164E-01  0.821E-02  0.821E-02
   8.189  0.164E-01  0.820E-02  0.820E-02
   8.191  0.670E-02  0.335E-02  0.335E-02
   8.193  0.308E-02  0.154E-02  0.154E-02
   8.195  0.192E-01  0.961E-02  0.961E-02
   8.197  0.276E-01  0.138E-01  0.138E-01
   8.199  0.119E-01  0.597E-02  0.597E-02
   8.201  0.131E-01  0.655E-02  0.655E-02
   8.203  0.228E-01  0.114E-01  0.114E-01
   8.205  0.183E-01  0.916E-02  0.916E-02
   8.207  0.108E-01  0.542E-02  0.542E-02
   8.209  0.794E-02  0.397E-02  0.397E-02
   8.211  0.179E-02  0.894E-03  0.894E-03
   8.213  0.722E-04  0.361E-04  0.361E-04
   8.215  0.877E-03  0.438E-03  0.438E-03
   8.217  0.692E-02  0.346E-02  0.346E-02
   8.219  0.740E-02  0.370E-02  0.370E-02
   8.221  0.178E-02  0.892E-03  0.892E-03
   8.223  0.760E-02  0.380E-02  0.380E-02
   8.225  0.120E-01  0.602E-02  0.602E-02
   8.227  0.125E-01  0.626E-02  0.626E-02
   8.229  0.120E-01  0.598E-02  0.598E-02
   8.231  0.192E-02  0.960E-03  0.960E-03
   8.233  0.364E-02  0.182E-02  0.182E-02
   8.235  0.222E-01  0.111E-01  0.111E-01
   8.237  0.190E-01  0.952E-02  0.952E-02
   8.239  0.372E-02  0.186E-02  0.186E-02
   8.241  0.719E-02  0.359E-02  0.359E-02
   8.243  0.103E-01  0.513E-02  0.513E-02
   8.245  0.157E-01  0.787E-02  0.787E-02
   8.247  0.168E-01  0.842E-02  0.842E-02
   8.249  0.320E-01  0.160E-01  0.160E-01
   8.251  0.305E-01  0.153E-01  0.153E-01
   8.253  0.111E-01  0.557E-02  0.557E-02
   8.255  0.144E-01  0.718E-02  0.718E-02
   8.257  0.404E-02  0.202E-02  0.202E-02
   8.259  0.155E-03  0.775E-04  0.775E-04
   8.261  0.805E-06  0.402E-06  0.402E-06
   8.263  0.565E-09  0.283E-09  0.283E-09
   8.265  0.537E-13  0.269E-13  0.269E-13
   8.267  0.175E-14  0.876E-15  0.876E-15
   8.269  0.370E-10  0.185E-10  0.185E-10
   8.271  0.108E-06  0.538E-07  0.538E-07
   8.273  0.430E-04  0.215E-04  0.215E-04
   8.275  0.236E-02  0.118E-02  0.118E-02
   8.277  0.178E-01  0.889E-02  0.889E-02
   8.279  0.184E-01  0.918E-02  0.918E-02
   8.281  0.313E-02  0.156E-02  0.156E-02
   8.283  0.104E-01  0.519E-02  0.519E-02
   8.285  0.276E-01  0.138E-01  0.138E-01
   8.287  0.102E-01  0.508E-02  0.508E-02
   8.289  0.514E-03  0.257E-03  0.257E-03
   8.291  0.549E-04  0.275E-04  0.275E-04
   8.293  0.206E-02  0.103E-02  0.103E-02
   8.295  0.112E-01  0.560E-02  0.560E-02
   8.297  0.824E-02  0.412E-02  0.412E-02
   8.299  0.871E-03  0.436E-03  0.436E-03
   8.301  0.171E-02  0.856E-03  0.856E-03
   8.303  0.776E-02  0.388E-02  0.388E-02
   8.305  0.860E-02  0.430E-02  0.430E-02
   8.307  0.210E-01  0.105E-01  0.105E-01
   8.309  0.274E-01  0.137E-01  0.137E-01
   8.311  0.169E-01  0.843E-02  0.843E-02
   8.313  0.272E-02  0.136E-02  0.136E-02
   8.315  0.214E-03  0.107E-03  0.107E-03
   8.317  0.375E-02  0.187E-02  0.187E-02
   8.319  0.143E-01  0.717E-02  0.717E-02
   8.321  0.743E-02  0.372E-02  0.372E-02
   8.323  0.521E-03  0.261E-03  0.261E-03
   8.325  0.718E-04  0.359E-04  0.359E-04
   8.327  0.183E-02  0.913E-03  0.913E-03
   8.329  0.675E-02  0.338E-02  0.338E-02
   8.331  0.359E-02  0.180E-02  0.180E-02
   8.333  0.457E-02  0.228E-02  0.228E-02
   8.335  0.121E-01  0.606E-02  0.606E-02
   8.337  0.828E-02  0.414E-02  0.414E-02
   8.339  0.155E-01  0.773E-02  0.773E-02
   8.341  0.136E-01  0.679E-02  0.679E-02
   8.343  0.105E-01  0.524E-02  0.524E-02
   8.345  0.190E-01  0.948E-02  0.948E-02
   8.347  0.923E-02  0.462E-02  0.462E-02
   8.349  0.836E-03  0.418E-03  0.418E-03
   8.351  0.117E-04  0.587E-05  0.587E-05
   8.353  0.887E-04  0.443E-04  0.443E-04
   8.355  0.302E-02  0.151E-02  0.151E-02
   8.357  0.139E-01  0.694E-02  0.694E-02
   8.359  0.868E-02  0.434E-02  0.434E-02
   8.361  0.158E-02  0.788E-03  0.788E-03
   8.363  0.502E-02  0.251E-02  0.251E-02
   8.365  0.746E-02  0.373E-02  0.373E-02
   8.367  0.150E-01  0.752E-02  0.752E-02
   8.369  0.162E-01  0.809E-02  0.809E-02
   8.371  0.259E-02  0.130E-02  0.130E-02
   8.373  0.564E-04  0.282E-04  0.282E-04
   8.375  0.514E-06  0.257E-06  0.257E-06
   8.377  0.767E-04  0.383E-04  0.383E-04
   8.379  0.229E-02  0.115E-02  0.115E-02
   8.381  0.950E-02  0.475E-02  0.475E-02
   8.383  0.947E-02  0.474E-02  0.474E-02
   8.385  0.172E-01  0.862E-02  0.862E-02
   8.387  0.162E-01  0.808E-02  0.808E-02
   8.389  0.484E-02  0.242E-02  0.242E-02
   8.391  0.362E-03  0.181E-03  0.181E-03
   8.393  0.145E-02  0.723E-03  0.723E-03
   8.395  0.876E-02  0.438E-02  0.438E-02
   8.397  0.937E-02  0.469E-02  0.469E-02
   8.399  0.155E-01  0.773E-02  0.773E-02
   8.401  0.159E-01  0.793E-02  0.793E-02
   8.403  0.379E-02  0.189E-02  0.189E-02
   8.405  0.221E-02  0.110E-02  0.110E-02
   8.407  0.607E-02  0.304E-02  0.304E-02
   8.409  0.262E-02  0.131E-02  0.131E-02
   8.411  0.237E-02  0.118E-02  0.118E-02
   8.413  0.513E-02  0.256E-02  0.256E-02
   8.415  0.166E-02  0.830E-03  0.830E-03
   8.417  0.101E-02  0.504E-03  0.504E-03
   8.419  0.876E-02  0.438E-02  0.438E-02
   8.421  0.160E-01  0.800E-02  0.800E-02
   8.423  0.906E-02  0.453E-02  0.453E-02
   8.425  0.262E-02  0.131E-02  0.131E-02
   8.427  0.238E-02  0.119E-02  0.119E-02
   8.429  0.309E-02  0.155E-02  0.155E-02
   8.431  0.140E-01  0.702E-02  0.702E-02
   8.433  0.179E-01  0.895E-02  0.895E-02
   8.435  0.112E-01  0.561E-02  0.561E-02
   8.437  0.121E-01  0.603E-02  0.603E-02
   8.439  0.954E-02  0.477E-02  0.477E-02
   8.441  0.299E-02  0.149E-02  0.149E-02
   8.443  0.580E-02  0.290E-02  0.290E-02
   8.445  0.207E-01  0.103E-01  0.103E-01
   8.447  0.174E-01  0.872E-02  0.872E-02
   8.449  0.251E-02  0.125E-02  0.125E-02
   8.451  0.618E-04  0.309E-04  0.309E-04
   8.453  0.350E-03  0.175E-03  0.175E-03
   8.455  0.213E-02  0.106E-02  0.106E-02
   8.457  0.180E-02  0.898E-03  0.898E-03
   8.459  0.177E-02  0.885E-03  0.885E-03
   8.461  0.739E-02  0.369E-02  0.369E-02
   8.463  0.469E-02  0.234E-02  0.234E-02
   8.465  0.619E-03  0.309E-03  0.309E-03
   8.467  0.313E-02  0.157E-02  0.157E-02
   8.469  0.713E-02  0.356E-02  0.356E-02
   8.471  0.391E-02  0.195E-02  0.195E-02
   8.473  0.626E-03  0.313E-03  0.313E-03
   8.475  0.186E-04  0.932E-05  0.932E-05
   8.477  0.214E-05  0.107E-05  0.107E-05
   8.479  0.205E-03  0.103E-03  0.103E-03
   8.481  0.291E-02  0.145E-02  0.145E-02
   8.483  0.104E-01  0.520E-02  0.520E-02
   8.485  0.310E-01  0.155E-01  0.155E-01
   8.487  0.335E-01  0.168E-01  0.168E-01
   8.489  0.223E-01  0.112E-01  0.112E-01
   8.491  0.174E-01  0.869E-02  0.869E-02
   8.493  0.152E-01  0.759E-02  0.759E-02
   8.495  0.234E-01  0.117E-01  0.117E-01
   8.497  0.327E-01  0.163E-01  0.163E-01
   8.499  0.279E-01  0.140E-01  0.140E-01
   8.501  0.204E-01  0.102E-01  0.102E-01
   8.503  0.160E-01  0.798E-02  0.798E-02
   8.505  0.143E-01  0.717E-02  0.717E-02
   8.507  0.100E-01  0.500E-02  0.500E-02
   8.509  0.571E-02  0.286E-02  0.286E-02
   8.511  0.839E-02  0.419E-02  0.419E-02
   8.513  0.328E-02  0.164E-02  0.164E-02
   8.515  0.395E-02  0.197E-02  0.197E-02
   8.517  0.119E-01  0.595E-02  0.595E-02
   8.519  0.594E-02  0.297E-02  0.297E-02
   8.521  0.642E-02  0.321E-02  0.321E-02
   8.523  0.570E-02  0.285E-02  0.285E-02
   8.525  0.777E-03  0.388E-03  0.388E-03
   8.527  0.185E-02  0.924E-03  0.924E-03
   8.529  0.111E-01  0.555E-02  0.555E-02
   8.531  0.204E-01  0.102E-01  0.102E-01
   8.533  0.176E-01  0.879E-02  0.879E-02
   8.535  0.142E-01  0.710E-02  0.710E-02
   8.537  0.224E-01  0.112E-01  0.112E-01
   8.539  0.263E-01  0.132E-01  0.132E-01
   8.541  0.179E-01  0.894E-02  0.894E-02
   8.543  0.147E-01  0.736E-02  0.736E-02
   8.545  0.215E-01  0.108E-01  0.108E-01
   8.547  0.263E-01  0.131E-01  0.131E-01
   8.549  0.221E-01  0.110E-01  0.110E-01
   8.551  0.204E-01  0.102E-01  0.102E-01
   8.553  0.216E-01  0.108E-01  0.108E-01
