# E (eV)   ldos(E)   pdos(E)_1   pdos(E)_2   pdos(E)_3   pdos(E)_4   
   7.605  0.556E-05  0.161E-05  0.117E-05  0.117E-05  0.161E-05
   7.607  0.374E-03  0.105E-03  0.818E-04  0.818E-04  0.105E-03
   7.609  0.498E-02  0.123E-02  0.126E-02  0.126E-02  0.123E-02
   7.611  0.243E-01  0.499E-02  0.718E-02  0.718E-02  0.499E-02
   7.613  0.423E-01  0.839E-02  0.128E-01  0.128E-01  0.839E-02
   7.615  0.200E-01  0.404E-02  0.594E-02  0.594E-02  0.404E-02
   7.617  0.211E-02  0.419E-03  0.636E-03  0.636E-03  0.419E-03
   7.619  0.767E-02  0.126E-02  0.257E-02  0.257E-02  0.126E-02
   7.621  0.265E-01  0.435E-02  0.891E-02  0.891E-02  0.435E-02
   7.623  0.125E-01  0.205E-02  0.418E-02  0.418E-02  0.205E-02
   7.625  0.792E-03  0.130E-03  0.266E-03  0.266E-03  0.130E-03
   7.627  0.681E-05  0.112E-05  0.229E-05  0.229E-05  0.112E-05
   7.629  0.793E-08  0.130E-08  0.266E-08  0.266E-08  0.130E-08
   7.631  0.125E-11  0.205E-12  0.419E-12  0.419E-12  0.205E-12
   7.633  0.268E-16  0.441E-17  0.900E-17  0.900E-17  0.441E-17
   7.635  0.196E-13  0.370E-14  0.612E-14  0.612E-14  0.370E-14
   7.637  0.282E-09  0.531E-10  0.877E-10  0.877E-10  0.531E-10
   7.639  0.552E-06  0.104E-06  0.172E-06  0.172E-06  0.104E-06
   7.641  0.151E-03  0.286E-04  0.470E-04  0.470E-04  0.286E-04
   7.643  0.602E-02  0.115E-02  0.186E-02  0.186E-02  0.115E-02
   7.645  0.379E-01  0.732E-02  0.116E-01  0.116E-01  0.732E-02
   7.647  0.407E-01  0.801E-02  0.123E-01  0.123E-01  0.801E-02
   7.649  0.790E-02  0.156E-02  0.239E-02  0.239E-02  0.156E-02
   7.651  0.942E-02  0.158E-02  0.313E-02  0.313E-02  0.158E-02
   7.653  0.279E-01  0.467E-02  0.930E-02  0.930E-02  0.467E-02
   7.655  0.115E-01  0.192E-02  0.382E-02  0.382E-02  0.192E-02
   7.657  0.132E-02  0.297E-03  0.363E-03  0.363E-03  0.297E-03
   7.659  0.461E-02  0.129E-02  0.102E-02  0.102E-02  0.129E-02
   7.661  0.421E-02  0.118E-02  0.930E-03  0.930E-03  0.118E-02
   7.663  0.537E-03  0.150E-03  0.118E-03  0.118E-03  0.150E-03
   7.665  0.668E-03  0.196E-03  0.138E-03  0.138E-03  0.196E-03
   7.667  0.360E-02  0.106E-02  0.742E-03  0.742E-03  0.106E-02
   7.669  0.266E-02  0.780E-03  0.548E-03  0.548E-03  0.780E-03
   7.671  0.266E-03  0.780E-04  0.548E-04  0.548E-04  0.780E-04
   7.673  0.114E-03  0.222E-04  0.350E-04  0.350E-04  0.222E-04
   7.675  0.579E-02  0.111E-02  0.178E-02  0.178E-02  0.111E-02
   7.677  0.423E-01  0.817E-02  0.130E-01  0.130E-01  0.817E-02
   7.679  0.435E-01  0.844E-02  0.133E-01  0.133E-01  0.844E-02
   7.681  0.990E-02  0.184E-02  0.311E-02  0.311E-02  0.184E-02
   7.683  0.241E-01  0.411E-02  0.795E-02  0.795E-02  0.411E-02
   7.685  0.220E-01  0.381E-02  0.719E-02  0.719E-02  0.381E-02
   7.687  0.677E-02  0.154E-02  0.184E-02  0.184E-02  0.154E-02
   7.689  0.333E-02  0.871E-03  0.793E-03  0.793E-03  0.871E-03
   7.691  0.347E-03  0.911E-04  0.823E-04  0.823E-04  0.911E-04
   7.693  0.495E-05  0.130E-05  0.117E-05  0.117E-05  0.130E-05
   7.695  0.957E-08  0.251E-08  0.227E-08  0.227E-08  0.251E-08
   7.697  0.250E-11  0.658E-12  0.594E-12  0.594E-12  0.658E-12
   7.699  0.178E-10  0.345E-11  0.546E-11  0.546E-11  0.345E-11
   7.701  0.755E-07  0.146E-07  0.231E-07  0.231E-07  0.146E-07
   7.703  0.435E-04  0.841E-05  0.134E-04  0.134E-04  0.841E-05
   7.705  0.341E-02  0.658E-03  0.105E-02  0.105E-02  0.658E-03
   7.707  0.364E-01  0.700E-02  0.112E-01  0.112E-01  0.700E-02
   7.709  0.531E-01  0.102E-01  0.164E-01  0.164E-01  0.102E-01
   7.711  0.199E-01  0.365E-02  0.633E-02  0.633E-02  0.365E-02
   7.713  0.303E-01  0.524E-02  0.991E-02  0.991E-02  0.524E-02
   7.715  0.128E-01  0.221E-02  0.418E-02  0.418E-02  0.221E-02
   7.717  0.736E-03  0.127E-03  0.241E-03  0.241E-03  0.127E-03
   7.719  0.574E-05  0.992E-06  0.188E-05  0.188E-05  0.992E-06
   7.721  0.607E-08  0.105E-08  0.198E-08  0.198E-08  0.105E-08
   7.723  0.579E-07  0.170E-07  0.119E-07  0.119E-07  0.170E-07
   7.725  0.209E-04  0.613E-05  0.433E-05  0.433E-05  0.613E-05
   7.727  0.106E-02  0.309E-03  0.220E-03  0.220E-03  0.309E-03
   7.729  0.755E-02  0.220E-02  0.158E-02  0.158E-02  0.220E-02
   7.731  0.760E-02  0.220E-02  0.160E-02  0.160E-02  0.220E-02
   7.733  0.319E-02  0.720E-03  0.877E-03  0.877E-03  0.720E-03
   7.735  0.302E-01  0.591E-02  0.920E-02  0.920E-02  0.591E-02
   7.737  0.698E-01  0.149E-01  0.200E-01  0.200E-01  0.149E-01
   7.739  0.631E-01  0.166E-01  0.150E-01  0.150E-01  0.166E-01
   7.741  0.734E-01  0.203E-01  0.164E-01  0.164E-01  0.203E-01
   7.743  0.647E-01  0.214E-01  0.109E-01  0.109E-01  0.214E-01
   7.745  0.500E-01  0.177E-01  0.729E-02  0.729E-02  0.177E-01
   7.747  0.229E-01  0.809E-02  0.334E-02  0.334E-02  0.809E-02
   7.749  0.128E-01  0.390E-02  0.252E-02  0.252E-02  0.390E-02
   7.751  0.128E-01  0.387E-02  0.252E-02  0.252E-02  0.387E-02
   7.753  0.639E-02  0.220E-02  0.994E-03  0.994E-03  0.220E-02
   7.755  0.591E-02  0.194E-02  0.101E-02  0.101E-02  0.194E-02
   7.757  0.690E-02  0.213E-02  0.131E-02  0.131E-02  0.213E-02
   7.759  0.143E-01  0.372E-02  0.341E-02  0.341E-02  0.372E-02
   7.761  0.435E-01  0.938E-02  0.124E-01  0.124E-01  0.938E-02
   7.763  0.680E-01  0.131E-01  0.210E-01  0.210E-01  0.131E-01
   7.765  0.488E-01  0.919E-02  0.152E-01  0.152E-01  0.919E-02
   7.767  0.270E-01  0.576E-02  0.773E-02  0.773E-02  0.576E-02
   7.769  0.530E-02  0.147E-02  0.118E-02  0.118E-02  0.147E-02
   7.771  0.680E-02  0.228E-02  0.112E-02  0.112E-02  0.228E-02
   7.773  0.116E-01  0.302E-02  0.277E-02  0.277E-02  0.302E-02
   7.775  0.573E-02  0.107E-02  0.179E-02  0.179E-02  0.107E-02
   7.777  0.645E-03  0.115E-03  0.208E-03  0.208E-03  0.115E-03
   7.779  0.182E-02  0.550E-03  0.361E-03  0.361E-03  0.550E-03
   7.781  0.709E-02  0.212E-02  0.142E-02  0.142E-02  0.212E-02
   7.783  0.130E-01  0.289E-02  0.362E-02  0.362E-02  0.289E-02
   7.785  0.604E-01  0.119E-01  0.183E-01  0.183E-01  0.119E-01
   7.787  0.800E-01  0.162E-01  0.238E-01  0.238E-01  0.162E-01
   7.789  0.353E-01  0.698E-02  0.107E-01  0.107E-01  0.698E-02
   7.791  0.763E-02  0.123E-02  0.258E-02  0.258E-02  0.123E-02
   7.793  0.753E-02  0.112E-02  0.264E-02  0.264E-02  0.112E-02
   7.795  0.821E-02  0.208E-02  0.203E-02  0.203E-02  0.208E-02
   7.797  0.112E-01  0.316E-02  0.246E-02  0.246E-02  0.316E-02
   7.799  0.843E-02  0.244E-02  0.178E-02  0.178E-02  0.244E-02
   7.801  0.251E-02  0.718E-03  0.537E-03  0.537E-03  0.718E-03
   7.803  0.125E-01  0.292E-02  0.333E-02  0.333E-02  0.292E-02
   7.805  0.726E-01  0.154E-01  0.209E-01  0.209E-01  0.154E-01
   7.807  0.897E-01  0.176E-01  0.272E-01  0.272E-01  0.176E-01
   7.809  0.269E-01  0.503E-02  0.842E-02  0.842E-02  0.503E-02
   7.811  0.171E-02  0.313E-03  0.543E-03  0.543E-03  0.313E-03
   7.813  0.773E-03  0.892E-04  0.297E-03  0.297E-03  0.892E-04
   7.815  0.560E-02  0.646E-03  0.215E-02  0.215E-02  0.646E-03
   7.817  0.718E-02  0.110E-02  0.249E-02  0.249E-02  0.110E-02
   7.819  0.976E-02  0.243E-02  0.245E-02  0.245E-02  0.243E-02
   7.821  0.403E-01  0.794E-02  0.122E-01  0.122E-01  0.794E-02
   7.823  0.985E-01  0.185E-01  0.308E-01  0.308E-01  0.185E-01
   7.825  0.467E-01  0.907E-02  0.143E-01  0.143E-01  0.907E-02
   7.827  0.113E-01  0.339E-02  0.224E-02  0.224E-02  0.339E-02
   7.829  0.366E-02  0.128E-02  0.553E-03  0.553E-03  0.128E-02
   7.831  0.355E-03  0.103E-03  0.739E-04  0.739E-04  0.103E-03
   7.833  0.801E-02  0.150E-02  0.250E-02  0.250E-02  0.150E-02
   7.835  0.710E-01  0.133E-01  0.222E-01  0.222E-01  0.133E-01
   7.837  0.911E-01  0.171E-01  0.285E-01  0.285E-01  0.171E-01
   7.839  0.172E-01  0.321E-02  0.537E-02  0.537E-02  0.321E-02
   7.841  0.375E-02  0.791E-03  0.108E-02  0.108E-02  0.791E-03
   7.843  0.292E-01  0.556E-02  0.902E-02  0.902E-02  0.556E-02
   7.845  0.101E+00  0.188E-01  0.318E-01  0.318E-01  0.188E-01
   7.847  0.745E-01  0.139E-01  0.233E-01  0.233E-01  0.139E-01
   7.849  0.319E-01  0.611E-02  0.984E-02  0.984E-02  0.611E-02
   7.851  0.125E+00  0.244E-01  0.379E-01  0.379E-01  0.244E-01
   7.853  0.137E+00  0.268E-01  0.419E-01  0.419E-01  0.268E-01
   7.855  0.448E-01  0.855E-02  0.139E-01  0.139E-01  0.855E-02
   7.857  0.303E-02  0.570E-03  0.944E-03  0.944E-03  0.570E-03
   7.859  0.306E-04  0.574E-05  0.954E-05  0.954E-05  0.574E-05
   7.861  0.120E-04  0.362E-05  0.241E-05  0.241E-05  0.362E-05
   7.863  0.574E-03  0.173E-03  0.115E-03  0.115E-03  0.173E-03
   7.865  0.373E-02  0.112E-02  0.743E-03  0.743E-03  0.112E-02
   7.867  0.374E-02  0.111E-02  0.763E-03  0.763E-03  0.111E-02
   7.869  0.518E-02  0.138E-02  0.121E-02  0.121E-02  0.138E-02
   7.871  0.652E-02  0.172E-02  0.154E-02  0.154E-02  0.172E-02
   7.873  0.223E-02  0.409E-03  0.706E-03  0.706E-03  0.409E-03
   7.875  0.612E-02  0.570E-03  0.249E-02  0.249E-02  0.570E-03
   7.877  0.585E-02  0.794E-03  0.213E-02  0.213E-02  0.794E-03
   7.879  0.773E-02  0.248E-02  0.139E-02  0.139E-02  0.248E-02
   7.881  0.911E-02  0.297E-02  0.159E-02  0.159E-02  0.297E-02
   7.883  0.607E-02  0.184E-02  0.119E-02  0.119E-02  0.184E-02
   7.885  0.139E-02  0.414E-03  0.280E-03  0.280E-03  0.414E-03
   7.887  0.483E-04  0.144E-04  0.976E-05  0.976E-05  0.144E-04
   7.889  0.230E-06  0.685E-07  0.464E-07  0.464E-07  0.685E-07
   7.891  0.150E-09  0.445E-10  0.303E-10  0.303E-10  0.445E-10
   7.893  0.723E-08  0.186E-08  0.176E-08  0.176E-08  0.186E-08
   7.895  0.452E-05  0.116E-05  0.110E-05  0.110E-05  0.116E-05
   7.897  0.383E-03  0.984E-04  0.931E-04  0.931E-04  0.984E-04
   7.899  0.439E-02  0.113E-02  0.107E-02  0.107E-02  0.113E-02
   7.901  0.680E-02  0.175E-02  0.165E-02  0.165E-02  0.175E-02
   7.903  0.162E-02  0.419E-03  0.394E-03  0.394E-03  0.419E-03
   7.905  0.271E-02  0.715E-03  0.642E-03  0.642E-03  0.715E-03
   7.907  0.525E-02  0.139E-02  0.124E-02  0.124E-02  0.139E-02
   7.909  0.752E-02  0.189E-02  0.187E-02  0.187E-02  0.189E-02
   7.911  0.157E-01  0.354E-02  0.433E-02  0.433E-02  0.354E-02
   7.913  0.552E-02  0.110E-02  0.166E-02  0.166E-02  0.110E-02
   7.915  0.275E-03  0.478E-04  0.898E-04  0.898E-04  0.478E-04
   7.917  0.193E-05  0.293E-06  0.673E-06  0.673E-06  0.293E-06
   7.919  0.190E-08  0.254E-09  0.698E-09  0.698E-09  0.254E-09
   7.921  0.261E-12  0.312E-13  0.992E-13  0.992E-13  0.312E-13
   7.923  0.380E-14  0.950E-15  0.950E-15  0.950E-15  0.950E-15
   7.925  0.582E-10  0.146E-10  0.145E-10  0.145E-10  0.146E-10
   7.927  0.121E-06  0.303E-07  0.302E-07  0.302E-07  0.303E-07
   7.929  0.340E-04  0.851E-05  0.849E-05  0.849E-05  0.851E-05
   7.931  0.129E-02  0.323E-03  0.323E-03  0.323E-03  0.323E-03
   7.933  0.666E-02  0.167E-02  0.166E-02  0.166E-02  0.167E-02
   7.935  0.474E-02  0.119E-02  0.118E-02  0.118E-02  0.119E-02
   7.937  0.229E-02  0.670E-03  0.476E-03  0.476E-03  0.670E-03
   7.939  0.466E-02  0.141E-02  0.922E-03  0.922E-03  0.141E-02
   7.941  0.205E-02  0.632E-03  0.396E-03  0.396E-03  0.632E-03
   7.943  0.562E-02  0.182E-02  0.988E-03  0.988E-03  0.182E-02
   7.945  0.877E-02  0.284E-02  0.155E-02  0.155E-02  0.284E-02
   7.947  0.327E-02  0.726E-03  0.911E-03  0.911E-03  0.726E-03
   7.949  0.638E-02  0.566E-03  0.262E-02  0.262E-02  0.566E-03
   7.951  0.383E-02  0.332E-03  0.158E-02  0.158E-02  0.332E-03
   7.953  0.314E-03  0.272E-04  0.130E-03  0.130E-03  0.272E-04
   7.955  0.348E-05  0.301E-06  0.144E-05  0.144E-05  0.301E-06
   7.957  0.631E-07  0.180E-07  0.136E-07  0.136E-07  0.180E-07
   7.959  0.188E-04  0.566E-05  0.372E-05  0.372E-05  0.566E-05
   7.961  0.853E-03  0.254E-03  0.172E-03  0.172E-03  0.254E-03
   7.963  0.604E-02  0.172E-02  0.130E-02  0.130E-02  0.172E-02
   7.965  0.961E-02  0.243E-02  0.237E-02  0.237E-02  0.243E-02
   7.967  0.844E-02  0.193E-02  0.229E-02  0.229E-02  0.193E-02
   7.969  0.113E-01  0.264E-02  0.302E-02  0.302E-02  0.264E-02
   7.971  0.773E-02  0.183E-02  0.204E-02  0.204E-02  0.183E-02
   7.973  0.262E-02  0.607E-03  0.704E-03  0.704E-03  0.607E-03
   7.975  0.511E-02  0.117E-02  0.139E-02  0.139E-02  0.117E-02
   7.977  0.265E-02  0.621E-03  0.706E-03  0.706E-03  0.621E-03
   7.979  0.711E-02  0.195E-02  0.160E-02  0.160E-02  0.195E-02
   7.981  0.123E-01  0.366E-02  0.249E-02  0.249E-02  0.366E-02
   7.983  0.352E-02  0.109E-02  0.669E-03  0.669E-03  0.109E-02
   7.985  0.201E-03  0.577E-04  0.429E-04  0.429E-04  0.577E-04
   7.987  0.190E-02  0.359E-03  0.592E-03  0.592E-03  0.359E-03
   7.989  0.102E-01  0.170E-02  0.342E-02  0.342E-02  0.170E-02
   7.991  0.836E-02  0.119E-02  0.299E-02  0.299E-02  0.119E-02
   7.993  0.165E-02  0.262E-03  0.561E-03  0.561E-03  0.262E-03
   7.995  0.305E-02  0.667E-03  0.857E-03  0.857E-03  0.667E-03
   7.997  0.198E-02  0.435E-03  0.556E-03  0.556E-03  0.435E-03
   7.999  0.175E-03  0.385E-04  0.492E-04  0.492E-04  0.385E-04
   8.001  0.210E-05  0.461E-06  0.589E-06  0.589E-06  0.461E-06
   8.003  0.734E-06  0.175E-06  0.192E-06  0.192E-06  0.175E-06
   8.005  0.126E-03  0.302E-04  0.330E-04  0.330E-04  0.302E-04
   8.007  0.319E-02  0.762E-03  0.834E-03  0.834E-03  0.762E-03
   8.009  0.124E-01  0.296E-02  0.324E-02  0.324E-02  0.296E-02
   8.011  0.797E-02  0.192E-02  0.207E-02  0.207E-02  0.192E-02
   8.013  0.365E-02  0.104E-02  0.785E-03  0.785E-03  0.104E-02
   8.015  0.793E-02  0.220E-02  0.177E-02  0.177E-02  0.220E-02
   8.017  0.102E-01  0.269E-02  0.242E-02  0.242E-02  0.269E-02
   8.019  0.117E-01  0.347E-02  0.238E-02  0.238E-02  0.347E-02
   8.021  0.786E-02  0.244E-02  0.149E-02  0.149E-02  0.244E-02
   8.023  0.937E-03  0.292E-03  0.177E-03  0.177E-03  0.292E-03
   8.025  0.155E-04  0.481E-05  0.292E-05  0.292E-05  0.481E-05
   8.027  0.575E-05  0.558E-06  0.232E-05  0.232E-05  0.558E-06
   8.029  0.416E-03  0.398E-04  0.168E-03  0.168E-03  0.398E-04
   8.031  0.410E-02  0.394E-03  0.166E-02  0.166E-02  0.394E-03
   8.033  0.594E-02  0.639E-03  0.233E-02  0.233E-02  0.639E-03
   8.035  0.571E-02  0.124E-02  0.161E-02  0.161E-02  0.124E-02
   8.037  0.633E-02  0.154E-02  0.163E-02  0.163E-02  0.154E-02
   8.039  0.172E-02  0.410E-03  0.449E-03  0.449E-03  0.410E-03
   8.041  0.284E-02  0.651E-03  0.769E-03  0.769E-03  0.651E-03
   8.043  0.188E-02  0.436E-03  0.506E-03  0.506E-03  0.436E-03
   8.045  0.169E-02  0.507E-03  0.338E-03  0.338E-03  0.507E-03
   8.047  0.542E-02  0.166E-02  0.105E-02  0.105E-02  0.166E-02
   8.049  0.449E-02  0.123E-02  0.101E-02  0.101E-02  0.123E-02
   8.051  0.727E-02  0.171E-02  0.192E-02  0.192E-02  0.171E-02
   8.053  0.349E-02  0.817E-03  0.930E-03  0.930E-03  0.817E-03
   8.055  0.233E-03  0.544E-04  0.619E-04  0.619E-04  0.544E-04
   8.057  0.110E-03  0.333E-04  0.216E-04  0.216E-04  0.333E-04
   8.059  0.292E-02  0.889E-03  0.569E-03  0.569E-03  0.889E-03
   8.061  0.107E-01  0.326E-02  0.209E-02  0.209E-02  0.326E-02
   8.063  0.532E-02  0.162E-02  0.104E-02  0.104E-02  0.162E-02
   8.065  0.122E-02  0.322E-03  0.287E-03  0.287E-03  0.322E-03
   8.067  0.639E-02  0.158E-02  0.161E-02  0.161E-02  0.158E-02
   8.069  0.779E-02  0.191E-02  0.198E-02  0.198E-02  0.191E-02
   8.071  0.373E-02  0.885E-03  0.980E-03  0.980E-03  0.885E-03
   8.073  0.215E-02  0.318E-03  0.758E-03  0.758E-03  0.318E-03
   8.075  0.569E-02  0.600E-03  0.224E-02  0.224E-02  0.600E-03
   8.077  0.299E-02  0.314E-03  0.118E-02  0.118E-02  0.314E-03
   8.079  0.213E-03  0.224E-04  0.841E-04  0.841E-04  0.224E-04
   8.081  0.205E-05  0.216E-06  0.811E-06  0.811E-06  0.216E-06
   8.083  0.269E-08  0.283E-09  0.106E-08  0.106E-08  0.283E-09
   8.085  0.151E-07  0.462E-08  0.295E-08  0.295E-08  0.462E-08
   8.087  0.695E-05  0.212E-05  0.135E-05  0.135E-05  0.212E-05
   8.089  0.432E-03  0.132E-03  0.841E-04  0.841E-04  0.132E-03
   8.091  0.363E-02  0.111E-02  0.708E-03  0.708E-03  0.111E-02
   8.093  0.448E-02  0.134E-02  0.900E-03  0.900E-03  0.134E-02
   8.095  0.482E-02  0.115E-02  0.126E-02  0.126E-02  0.115E-02
   8.097  0.671E-02  0.154E-02  0.182E-02  0.182E-02  0.154E-02
   8.099  0.157E-02  0.363E-03  0.424E-03  0.424E-03  0.363E-03
   8.101  0.230E-02  0.581E-03  0.570E-03  0.570E-03  0.581E-03
   8.103  0.128E-01  0.342E-02  0.297E-02  0.297E-02  0.342E-02
   8.105  0.205E-01  0.568E-02  0.455E-02  0.455E-02  0.568E-02
   8.107  0.558E-02  0.158E-02  0.121E-02  0.121E-02  0.158E-02
   8.109  0.220E-03  0.632E-04  0.468E-04  0.468E-04  0.632E-04
   8.111  0.122E-05  0.354E-06  0.256E-06  0.256E-06  0.354E-06
   8.113  0.233E-05  0.274E-06  0.891E-06  0.891E-06  0.274E-06
   8.115  0.225E-03  0.265E-04  0.862E-04  0.862E-04  0.265E-04
   8.117  0.295E-02  0.347E-03  0.113E-02  0.113E-02  0.347E-03
   8.119  0.523E-02  0.615E-03  0.200E-02  0.200E-02  0.615E-03
   8.121  0.125E-02  0.147E-03  0.480E-03  0.480E-03  0.147E-03
   8.123  0.742E-04  0.138E-04  0.233E-04  0.233E-04  0.138E-04
   8.125  0.111E-02  0.298E-03  0.257E-03  0.257E-03  0.298E-03
   8.127  0.498E-02  0.134E-02  0.115E-02  0.115E-02  0.134E-02
   8.129  0.337E-02  0.920E-03  0.764E-03  0.764E-03  0.920E-03
   8.131  0.379E-02  0.117E-02  0.727E-03  0.727E-03  0.117E-02
   8.133  0.492E-02  0.153E-02  0.933E-03  0.933E-03  0.153E-02
   8.135  0.212E-02  0.592E-03  0.470E-03  0.470E-03  0.592E-03
   8.137  0.302E-02  0.772E-03  0.738E-03  0.738E-03  0.772E-03
   8.139  0.213E-02  0.507E-03  0.560E-03  0.560E-03  0.507E-03
   8.141  0.136E-01  0.303E-02  0.377E-02  0.377E-02  0.303E-02
   8.143  0.413E-01  0.930E-02  0.114E-01  0.114E-01  0.930E-02
   8.145  0.396E-01  0.914E-02  0.107E-01  0.107E-01  0.914E-02
   8.147  0.194E-01  0.449E-02  0.519E-02  0.519E-02  0.449E-02
   8.149  0.348E-01  0.827E-02  0.913E-02  0.913E-02  0.827E-02
   8.151  0.216E-01  0.559E-02  0.521E-02  0.521E-02  0.559E-02
   8.153  0.314E-02  0.862E-03  0.710E-03  0.710E-03  0.862E-03
   8.155  0.639E-02  0.144E-02  0.175E-02  0.175E-02  0.144E-02
   8.157  0.247E-01  0.551E-02  0.683E-02  0.683E-02  0.551E-02
   8.159  0.175E-01  0.374E-02  0.500E-02  0.500E-02  0.374E-02
   8.161  0.674E-02  0.105E-02  0.232E-02  0.232E-02  0.105E-02
   8.163  0.222E-02  0.300E-03  0.812E-03  0.812E-03  0.300E-03
   8.165  0.532E-03  0.109E-03  0.157E-03  0.157E-03  0.109E-03
   8.167  0.757E-02  0.172E-02  0.206E-02  0.206E-02  0.172E-02
   8.169  0.256E-01  0.590E-02  0.687E-02  0.687E-02  0.590E-02
   8.171  0.221E-01  0.540E-02  0.564E-02  0.564E-02  0.540E-02
   8.173  0.663E-02  0.174E-02  0.157E-02  0.157E-02  0.174E-02
   8.175  0.769E-03  0.206E-03  0.178E-03  0.178E-03  0.206E-03
   8.177  0.204E-04  0.543E-05  0.475E-05  0.475E-05  0.543E-05
   8.179  0.331E-04  0.760E-05  0.893E-05  0.893E-05  0.760E-05
   8.181  0.174E-02  0.399E-03  0.470E-03  0.470E-03  0.399E-03
   8.183  0.134E-01  0.307E-02  0.365E-02  0.365E-02  0.307E-02
   8.185  0.213E-01  0.479E-02  0.588E-02  0.588E-02  0.479E-02
   8.187  0.138E-01  0.315E-02  0.376E-02  0.376E-02  0.315E-02
   8.189  0.118E-01  0.298E-02  0.294E-02  0.294E-02  0.298E-02
   8.191  0.474E-02  0.121E-02  0.116E-02  0.116E-02  0.121E-02
   8.193  0.126E-02  0.292E-03  0.338E-03  0.338E-03  0.292E-03
   8.195  0.812E-02  0.195E-02  0.211E-02  0.211E-02  0.195E-02
   8.197  0.166E-01  0.445E-02  0.387E-02  0.387E-02  0.445E-02
   8.199  0.960E-02  0.264E-02  0.216E-02  0.216E-02  0.264E-02
   8.201  0.127E-01  0.275E-02  0.358E-02  0.358E-02  0.275E-02
   8.203  0.219E-01  0.469E-02  0.625E-02  0.625E-02  0.469E-02
   8.205  0.156E-01  0.338E-02  0.442E-02  0.442E-02  0.338E-02
   8.207  0.704E-02  0.163E-02  0.189E-02  0.189E-02  0.163E-02
   8.209  0.321E-02  0.873E-03  0.735E-03  0.735E-03  0.873E-03
   8.211  0.686E-03  0.190E-03  0.153E-03  0.153E-03  0.190E-03
   8.213  0.309E-04  0.890E-05  0.654E-05  0.654E-05  0.890E-05
   8.215  0.525E-03  0.165E-03  0.976E-04  0.976E-04  0.165E-03
   8.217  0.414E-02  0.130E-02  0.770E-03  0.770E-03  0.130E-02
   8.219  0.443E-02  0.139E-02  0.826E-03  0.826E-03  0.139E-02
   8.221  0.156E-02  0.415E-03  0.363E-03  0.363E-03  0.415E-03
   8.223  0.973E-02  0.228E-02  0.259E-02  0.259E-02  0.228E-02
   8.225  0.148E-01  0.345E-02  0.397E-02  0.397E-02  0.345E-02
